LabVIEW Measurement	
Writer_Version	0.92
Reader_Version	1
Separator	Tab
Multi_Headings	Yes
X_Columns	One
Time_Pref	Absolute
Operator	aerolab
Date	2013/11/14
Time	09:50:18.153659
***End_of_Header***	
	
Notes	X values guaranteed valid only for Voltage_0				
Channels	4				
Samples	6000	1	1	1	
Date	2013/11/14	2013/11/14	2013/11/14	2013/11/14	
Time	09:51:18.173702	09:51:18.173702	09:51:18.173702	09:51:18.173702	
Y_Unit_Label	Volts				
X_Dimension	Time	Time	Time	Time	
X0	0.0000000000000000E+0	0.0000000000000000E+0	0.0000000000000000E+0	0.0000000000000000E+0	
Delta_X	0.010000	1.000000	1.000000	1.000000	
***End_of_Header***					
X_Value	Voltage_0	Untitled	Untitled 1	Untitled 2	Comment
0.000000	-0.153415	11.781124	11.781153	0.002217
0.010000	-0.100851			
0.020000	-0.047777			
0.030000	0.007849			
0.040000	0.060923			
0.050000	0.116549			
0.060000	0.167072			
0.070000	0.213001			
0.080000	0.256379			
0.090000	0.300268			
0.100000	0.333949			
0.110000	0.366611			
0.120000	0.391106			
0.130000	0.411009			
0.140000	0.425299			
0.150000	0.436526			
0.160000	0.439077			
0.170000	0.433974			
0.180000	0.425809			
0.190000	0.407437			
0.200000	0.385493			
0.210000	0.358445			
0.220000	0.323743			
0.230000	0.284958			
0.240000	0.243111			
0.250000	0.195650			
0.260000	0.143597			
0.270000	0.095115			
0.280000	0.043572			
0.290000	-0.011544			
0.300000	-0.064618			
0.310000	-0.115141			
0.320000	-0.168215			
0.330000	-0.218738			
0.340000	-0.267219			
0.350000	-0.309576			
0.360000	-0.349382			
0.370000	-0.384084			
0.380000	-0.415725			
0.390000	-0.437159			
0.400000	-0.459103			
0.410000	-0.469309			
0.420000	-0.474413			
0.430000	-0.477985			
0.440000	-0.470840			
0.450000	-0.459613			
0.460000	-0.443283			
0.470000	-0.418787			
0.480000	-0.390719			
0.490000	-0.354485			
0.500000	-0.316721			
0.510000	-0.274363			
0.520000	-0.227923			
0.530000	-0.178932			
0.540000	-0.127389			
0.550000	-0.076866			
0.560000	-0.020730			
0.570000	0.028772			
0.580000	0.080316			
0.590000	0.130838			
0.600000	0.179320			
0.610000	0.227801			
0.620000	0.271179			
0.630000	0.308943			
0.640000	0.342625			
0.650000	0.372224			
0.660000	0.392127			
0.670000	0.407437			
0.680000	0.417644			
0.690000	0.421726			
0.700000	0.419175			
0.710000	0.410499			
0.720000	0.397230			
0.730000	0.379369			
0.740000	0.355383			
0.750000	0.323743			
0.760000	0.290061			
0.770000	0.250766			
0.780000	0.205346			
0.790000	0.154313			
0.800000	0.108384			
0.810000	0.054289			
0.820000	0.002235			
0.830000	-0.051349			
0.840000	-0.104934			
0.850000	-0.155457			
0.860000	-0.203428			
0.870000	-0.248847			
0.880000	-0.294777			
0.890000	-0.335603			
0.900000	-0.370305			
0.910000	-0.403477			
0.920000	-0.430014			
0.930000	-0.450938			
0.940000	-0.464206			
0.950000	-0.472371			
0.960000	-0.474923			
0.970000	-0.470840			
0.980000	-0.461654			
0.990000	-0.442262			
1.000000	-0.420318			
1.010000	-0.397353			
1.020000	-0.365713			
1.030000	-0.326927			
1.040000	-0.286101			
1.050000	-0.240171			
1.060000	-0.194242			
1.070000	-0.142698			
1.080000	-0.090645			
1.090000	-0.038081			
1.100000	0.015504			
1.110000	0.066537			
1.120000	0.117059			
1.130000	0.166051			
1.140000	0.213001			
1.150000	0.255359			
1.160000	0.295675			
1.170000	0.329867			
1.180000	0.360997			
1.190000	0.387534			
1.200000	0.406927			
1.210000	0.421726			
1.220000	0.427340			
1.230000	0.428360			
1.240000	0.419685			
1.250000	0.407947			
1.260000	0.391617			
1.270000	0.369673			
1.280000	0.339053			
1.290000	0.304350			
1.300000	0.268627			
1.310000	0.227291			
1.320000	0.180340			
1.330000	0.133390			
1.340000	0.084909			
1.350000	0.033365			
1.360000	-0.019709			
1.370000	-0.071763			
1.380000	-0.122285			
1.390000	-0.174339			
1.400000	-0.220269			
1.410000	-0.263647			
1.420000	-0.307535			
1.430000	-0.344789			
1.440000	-0.374898			
1.450000	-0.400925			
1.460000	-0.425421			
1.470000	-0.440731			
1.480000	-0.451958			
1.490000	-0.455531			
1.500000	-0.455531			
1.510000	-0.448386			
1.520000	-0.437159			
1.530000	-0.415725			
1.540000	-0.390719			
1.550000	-0.359078			
1.560000	-0.326417			
1.570000	-0.288142			
1.580000	-0.243744			
1.590000	-0.195262			
1.600000	-0.151374			
1.610000	-0.099320			
1.620000	-0.047267			
1.630000	0.004787			
1.640000	0.055309			
1.650000	0.106342			
1.660000	0.156355			
1.670000	0.203815			
1.680000	0.247704			
1.690000	0.285468			
1.700000	0.319660			
1.710000	0.350790			
1.720000	0.377328			
1.730000	0.397230			
1.740000	0.414582			
1.750000	0.422747			
1.760000	0.426829			
1.770000	0.422747			
1.780000	0.412540			
1.790000	0.398251			
1.800000	0.376817			
1.810000	0.351811			
1.820000	0.319150			
1.830000	0.281896			
1.840000	0.239539			
1.850000	0.198202			
1.860000	0.151762			
1.870000	0.101239			
1.880000	0.051737			
1.890000	0.003256			
1.900000	-0.051349			
1.910000	-0.100851			
1.920000	-0.152395			
1.930000	-0.196793			
1.940000	-0.245785			
1.950000	-0.287122			
1.960000	-0.326927			
1.970000	-0.359589			
1.980000	-0.390719			
1.990000	-0.413683			
2.000000	-0.432566			
2.010000	-0.444814			
2.020000	-0.448896			
2.030000	-0.450427			
2.040000	-0.447876			
2.050000	-0.437159			
2.060000	-0.419807			
2.070000	-0.398884			
2.080000	-0.370816			
2.090000	-0.337134			
2.100000	-0.302942			
2.110000	-0.261095			
2.120000	-0.216186			
2.130000	-0.172298			
2.140000	-0.124327			
2.150000	-0.074314			
2.160000	-0.022771			
2.170000	0.028772			
2.180000	0.077764			
2.190000	0.125735			
2.200000	0.175747			
2.210000	0.218105			
2.220000	0.259441			
2.230000	0.296185			
2.240000	0.330888			
2.250000	0.353342			
2.260000	0.378348			
2.270000	0.392637			
2.280000	0.399782			
2.290000	0.408458			
2.300000	0.404375			
2.310000	0.397230			
2.320000	0.385493			
2.330000	0.367631			
2.340000	0.344666			
2.350000	0.314557			
2.360000	0.282917			
2.370000	0.243621			
2.380000	0.200753			
2.390000	0.155844			
2.400000	0.107873			
2.410000	0.055309			
2.420000	0.005808			
2.430000	-0.046756			
2.440000	-0.095748			
2.450000	-0.144740			
2.460000	-0.191690			
2.470000	-0.237620			
2.480000	-0.280487			
2.490000	-0.316211			
2.500000	-0.353465			
2.510000	-0.386126			
2.520000	-0.411642			
2.530000	-0.432055			
2.540000	-0.447365			
2.550000	-0.456551			
2.560000	-0.459613			
2.570000	-0.455020			
2.580000	-0.444814			
2.590000	-0.430524			
2.600000	-0.412663			
2.610000	-0.385105			
2.620000	-0.355506			
2.630000	-0.320803			
2.640000	-0.283549			
2.650000	-0.238640			
2.660000	-0.195262			
2.670000	-0.144229			
2.680000	-0.095748			
2.690000	-0.047777			
2.700000	0.002746			
2.710000	0.053268			
2.720000	0.102260			
2.730000	0.147169			
2.740000	0.192078			
2.750000	0.236987			
2.760000	0.274241			
2.770000	0.307923			
2.780000	0.337011			
2.790000	0.364059			
2.800000	0.381920			
2.810000	0.393148			
2.820000	0.402844			
2.830000	0.400803			
2.840000	0.396210			
2.850000	0.387024			
2.860000	0.369673			
2.870000	0.346197			
2.880000	0.321191			
2.890000	0.286999			
2.900000	0.252807			
2.910000	0.215043			
2.920000	0.169623			
2.930000	0.125735			
2.940000	0.080316			
2.950000	0.029793			
2.960000	-0.022771			
2.970000	-0.072783			
2.980000	-0.120754			
2.990000	-0.171277			
3.000000	-0.217207			
3.010000	-0.256502			
3.020000	-0.296818			
3.030000	-0.333051			
3.040000	-0.367754			
3.050000	-0.391739			
3.060000	-0.413683			
3.070000	-0.430524			
3.080000	-0.440731			
3.090000	-0.447365			
3.100000	-0.444814			
3.110000	-0.437669			
3.120000	-0.425931			
3.130000	-0.410622			
3.140000	-0.386126			
3.150000	-0.356016			
3.160000	-0.320803			
3.170000	-0.286611			
3.180000	-0.244764			
3.190000	-0.200876			
3.200000	-0.152395			
3.210000	-0.103403			
3.220000	-0.054411			
3.230000	-0.003889			
3.240000	0.047144			
3.250000	0.096646			
3.260000	0.143086			
3.270000	0.186975			
3.280000	0.229842			
3.290000	0.266076			
3.300000	0.301288			
3.310000	0.331398			
3.320000	0.357425			
3.330000	0.379879			
3.340000	0.397230			
3.350000	0.405396			
3.360000	0.407947			
3.370000	0.407437			
3.380000	0.399272			
3.390000	0.386003			
3.400000	0.364569			
3.410000	0.340073			
3.420000	0.309964			
3.430000	0.276282			
3.440000	0.235966			
3.450000	0.193609			
3.460000	0.149210			
3.470000	0.103280			
3.480000	0.054799			
3.490000	0.007338			
3.500000	-0.042163			
3.510000	-0.090134			
3.520000	-0.139636			
3.530000	-0.185056			
3.540000	-0.232006			
3.550000	-0.271812			
3.560000	-0.308045			
3.570000	-0.340196			
3.580000	-0.372857			
3.590000	-0.391739			
3.600000	-0.410622			
3.610000	-0.424400			
3.620000	-0.432055			
3.630000	-0.433586			
3.640000	-0.425931			
3.650000	-0.417256			
3.660000	-0.400925			
3.670000	-0.380512			
3.680000	-0.356016			
3.690000	-0.325396			
3.700000	-0.290184			
3.710000	-0.251909			
3.720000	-0.210572			
3.730000	-0.164132			
3.740000	-0.119223			
3.750000	-0.069211			
3.760000	-0.022771			
3.770000	0.027752			
3.780000	0.076743			
3.790000	0.123183			
3.800000	0.168092			
3.810000	0.213512			
3.820000	0.250766			
3.830000	0.285468			
3.840000	0.318129			
3.850000	0.344156			
3.860000	0.365590			
3.870000	0.381920			
3.880000	0.393148			
3.890000	0.396720			
3.900000	0.396210			
3.910000	0.390086			
3.920000	0.377328			
3.930000	0.363549			
3.940000	0.335991			
3.950000	0.312005			
3.960000	0.279344			
3.970000	0.243621			
3.980000	0.203305			
3.990000	0.155844			
4.000000	0.111956			
4.010000	0.064495			
4.020000	0.013462			
4.030000	-0.037571			
4.040000	-0.080949			
4.050000	-0.127389			
4.060000	-0.174339			
4.070000	-0.220779			
4.080000	-0.258033			
4.090000	-0.300901			
4.100000	-0.331520			
4.110000	-0.361120			
4.120000	-0.389698			
4.130000	-0.409601			
4.140000	-0.421849			
4.150000	-0.433586			
4.160000	-0.439200			
4.170000	-0.436648			
4.180000	-0.424400			
4.190000	-0.411642			
4.200000	-0.394291			
4.210000	-0.372347			
4.220000	-0.341217			
4.230000	-0.310087			
4.240000	-0.271302			
4.250000	-0.230985			
4.260000	-0.189649			
4.270000	-0.144229			
4.280000	-0.095238			
4.290000	-0.048798			
4.300000	-0.002868			
4.310000	0.045613			
4.320000	0.092564			
4.330000	0.140024			
4.340000	0.182382			
4.350000	0.220656			
4.360000	0.259441			
4.370000	0.293123			
4.380000	0.320681			
4.390000	0.342625			
4.400000	0.362528			
4.410000	0.374266			
4.420000	0.383451			
4.430000	0.384472			
4.440000	0.376817			
4.450000	0.368652			
4.460000	0.353342			
4.470000	0.329357			
4.480000	0.305371			
4.490000	0.277813			
4.500000	0.244131			
4.510000	0.204836			
4.520000	0.162479			
4.530000	0.119101			
4.540000	0.075723			
4.550000	0.027752			
4.560000	-0.022771			
4.570000	-0.070232			
4.580000	-0.117692			
4.590000	-0.163112			
4.600000	-0.207510			
4.610000	-0.250888			
4.620000	-0.290184			
4.630000	-0.324376			
4.640000	-0.353975			
4.650000	-0.380512			
4.660000	-0.401436			
4.670000	-0.418787			
4.680000	-0.430524			
4.690000	-0.434097			
4.700000	-0.435628			
4.710000	-0.429504			
4.720000	-0.418276			
4.730000	-0.399905			
4.740000	-0.379491			
4.750000	-0.353465			
4.760000	-0.321824			
4.770000	-0.284570			
4.780000	-0.243744			
4.790000	-0.204959			
4.800000	-0.159029			
4.810000	-0.113099			
4.820000	-0.063597			
4.830000	-0.014606			
4.840000	0.030303			
4.850000	0.078785			
4.860000	0.124714			
4.870000	0.168603			
4.880000	0.207388			
4.890000	0.244642			
4.900000	0.282406			
4.910000	0.312516			
4.920000	0.337522			
4.930000	0.356404			
4.940000	0.374266			
4.950000	0.381920			
4.960000	0.387024			
4.970000	0.385493			
4.980000	0.379369			
4.990000	0.364569			
5.000000	0.348239			
5.010000	0.325274			
5.020000	0.294144			
5.030000	0.259952			
5.040000	0.224739			
5.050000	0.185444			
5.060000	0.141045			
5.070000	0.097157			
5.080000	0.053268			
5.090000	0.006318			
5.100000	-0.040122			
5.110000	-0.088093			
5.120000	-0.135554			
5.130000	-0.179442			
5.140000	-0.220269			
5.150000	-0.262116			
5.160000	-0.299370			
5.170000	-0.328458			
5.180000	-0.354996			
5.190000	-0.382043			
5.200000	-0.398884			
5.210000	-0.412153			
5.220000	-0.414704			
5.230000	-0.419807			
5.240000	-0.413683			
5.250000	-0.406029			
5.260000	-0.390719			
5.270000	-0.372857			
5.280000	-0.346830			
5.290000	-0.319273			
5.300000	-0.284060			
5.310000	-0.246295			
5.320000	-0.204959			
5.330000	-0.161581			
5.340000	-0.119734			
5.350000	-0.071252			
5.360000	-0.023792			
5.370000	0.022648			
5.380000	0.070619			
5.390000	0.118080			
5.400000	0.159417			
5.410000	0.202795			
5.420000	0.243111			
5.430000	0.275772			
5.440000	0.303330			
5.450000	0.334460			
5.460000	0.354873			
5.470000	0.368652			
5.480000	0.378348			
5.490000	0.388555			
5.500000	0.386003			
5.510000	0.382431			
5.520000	0.370693			
5.530000	0.353342			
5.540000	0.332419			
5.550000	0.306902			
5.560000	0.277813			
5.570000	0.241580			
5.580000	0.202284			
5.590000	0.162479			
5.600000	0.116549			
5.610000	0.069088			
5.620000	0.025200			
5.630000	-0.019709			
5.640000	-0.070742			
5.650000	-0.114630			
5.660000	-0.160050			
5.670000	-0.202917			
5.680000	-0.241192			
5.690000	-0.279467			
5.700000	-0.311107			
5.710000	-0.341727			
5.720000	-0.366733			
5.730000	-0.384595			
5.740000	-0.399905			
5.750000	-0.411642			
5.760000	-0.417256			
5.770000	-0.414704			
5.780000	-0.405008			
5.790000	-0.394291			
5.800000	-0.374898			
5.810000	-0.354485			
5.820000	-0.325907			
5.830000	-0.292225			
5.840000	-0.258543			
5.850000	-0.223331			
5.860000	-0.180463			
5.870000	-0.136064			
5.880000	-0.094727			
5.890000	-0.049308			
5.900000	-0.000827			
5.910000	0.043572			
5.920000	0.090522			
5.930000	0.134921			
5.940000	0.174216			
5.950000	0.214532			
5.960000	0.248724			
5.970000	0.285979			
5.980000	0.307412			
5.990000	0.330888			
6.000000	0.350790			
6.010000	0.363038			
6.020000	0.368652			
6.030000	0.369162			
6.040000	0.368652			
6.050000	0.358445			
6.060000	0.343135			
6.070000	0.322722			
6.080000	0.298226			
6.090000	0.272710			
6.100000	0.239028			
6.110000	0.201264			
6.120000	0.162989			
6.130000	0.120632			
6.140000	0.077254			
6.150000	0.031834			
6.160000	-0.017157			
6.170000	-0.062066			
6.180000	-0.106975			
6.190000	-0.153415			
6.200000	-0.198324			
6.210000	-0.236599			
6.220000	-0.275384			
6.230000	-0.309066			
6.240000	-0.337644			
6.250000	-0.364182			
6.260000	-0.385615			
6.270000	-0.399394			
6.280000	-0.411642			
6.290000	-0.418276			
6.300000	-0.420318			
6.310000	-0.415214			
6.320000	-0.405008			
6.330000	-0.388677			
6.340000	-0.369285			
6.350000	-0.344279			
6.360000	-0.314680			
6.370000	-0.281508			
6.380000	-0.243233			
6.390000	-0.201897			
6.400000	-0.161581			
6.410000	-0.115651			
6.420000	-0.070742			
6.430000	-0.023281			
6.440000	0.021117			
6.450000	0.068068			
6.460000	0.111446			
6.470000	0.152782			
6.480000	0.189016			
6.490000	0.227291			
6.500000	0.261483			
6.510000	0.290571			
6.520000	0.315578			
6.530000	0.336501			
6.540000	0.351301			
6.550000	0.360487			
6.560000	0.365590			
6.570000	0.364059			
6.580000	0.358956			
6.590000	0.347728			
6.600000	0.326805			
6.610000	0.305371			
6.620000	0.279855			
6.630000	0.250255			
6.640000	0.211470			
6.650000	0.174216			
6.660000	0.134921			
6.670000	0.092053			
6.680000	0.049186			
6.690000	0.002746			
6.700000	-0.045225			
6.710000	-0.089624			
6.720000	-0.133513			
6.730000	-0.176380			
6.740000	-0.218227			
6.750000	-0.256502			
6.760000	-0.289673			
6.770000	-0.323355			
6.780000	-0.349892			
6.790000	-0.372857			
6.800000	-0.388677			
6.810000	-0.402967			
6.820000	-0.409091			
6.830000	-0.412663			
6.840000	-0.409091			
6.850000	-0.398374			
6.860000	-0.384084			
6.870000	-0.366223			
6.880000	-0.341217			
6.890000	-0.312638			
6.900000	-0.281508			
6.910000	-0.247826			
6.920000	-0.209552			
6.930000	-0.166174			
6.940000	-0.120754			
6.950000	-0.078907			
6.960000	-0.032467			
6.970000	0.012952			
6.980000	0.061944			
6.990000	0.103280			
7.000000	0.148700			
7.010000	0.187485			
7.020000	0.223208			
7.030000	0.255869			
7.040000	0.288020			
7.050000	0.314047			
7.060000	0.335480			
7.070000	0.353342			
7.080000	0.362018			
7.090000	0.372224			
7.100000	0.369673			
7.110000	0.367121			
7.120000	0.356914			
7.130000	0.340073			
7.140000	0.322722			
7.150000	0.297206			
7.160000	0.268627			
7.170000	0.235966			
7.180000	0.201264			
7.190000	0.159417			
7.200000	0.117570			
7.210000	0.073171			
7.220000	0.028772			
7.230000	-0.019199			
7.240000	-0.063597			
7.250000	-0.107486			
7.260000	-0.148822			
7.270000	-0.190159			
7.280000	-0.226903			
7.290000	-0.266198			
7.300000	-0.296308			
7.310000	-0.325396			
7.320000	-0.350403			
7.330000	-0.367243			
7.340000	-0.382553			
7.350000	-0.392250			
7.360000	-0.397353			
7.370000	-0.397353			
7.380000	-0.391229			
7.390000	-0.377450			
7.400000	-0.362651			
7.410000	-0.340706			
7.420000	-0.314680			
7.430000	-0.283549			
7.440000	-0.249868			
7.450000	-0.212103			
7.460000	-0.174339			
7.470000	-0.133513			
7.480000	-0.087583			
7.490000	-0.044205			
7.500000	-0.002868			
7.510000	0.044082			
7.520000	0.087460			
7.530000	0.130328			
7.540000	0.171154			
7.550000	0.208919			
7.560000	0.242600			
7.570000	0.273220			
7.580000	0.303840			
7.590000	0.323233			
7.600000	0.340584			
7.610000	0.352832			
7.620000	0.364569			
7.630000	0.362528			
7.640000	0.360487			
7.650000	0.351301			
7.660000	0.338542			
7.670000	0.321191			
7.680000	0.298226			
7.690000	0.268627			
7.700000	0.239539			
7.710000	0.203815			
7.720000	0.168092			
7.730000	0.126245			
7.740000	0.084398			
7.750000	0.040000			
7.760000	-0.004909			
7.770000	-0.051860			
7.780000	-0.095748			
7.790000	-0.137085			
7.800000	-0.180973			
7.810000	-0.221800			
7.820000	-0.255992			
7.830000	-0.288653			
7.840000	-0.318762			
7.850000	-0.344279			
7.860000	-0.365713			
7.870000	-0.381022			
7.880000	-0.390719			
7.890000	-0.398374			
7.900000	-0.398884			
7.910000	-0.397353			
7.920000	-0.389188			
7.930000	-0.372347			
7.940000	-0.355506			
7.950000	-0.331520			
7.960000	-0.304983			
7.970000	-0.270791			
7.980000	-0.237109			
7.990000	-0.197304			
8.000000	-0.156988			
8.010000	-0.115651			
8.020000	-0.070232			
8.030000	-0.025323			
8.040000	0.017545			
8.050000	0.061433			
8.060000	0.103791			
8.070000	0.145128			
8.080000	0.179320			
8.090000	0.217084			
8.100000	0.247193			
8.110000	0.277303			
8.120000	0.300268			
8.130000	0.317619			
8.140000	0.334970			
8.150000	0.344156			
8.160000	0.349259			
8.170000	0.349259			
8.180000	0.343135			
8.190000	0.329867			
8.200000	0.314047			
8.210000	0.293123			
8.220000	0.266586			
8.230000	0.237497			
8.240000	0.204326			
8.250000	0.170644			
8.260000	0.127266			
8.270000	0.086440			
8.280000	0.043062			
8.290000	0.000194			
8.300000	-0.044205			
8.310000	-0.086562			
8.320000	-0.127389			
8.330000	-0.170256			
8.340000	-0.211083			
8.350000	-0.247826			
8.360000	-0.284570			
8.370000	-0.314680			
8.380000	-0.338155			
8.390000	-0.365202			
8.400000	-0.380512			
8.410000	-0.391229			
8.420000	-0.397353			
8.430000	-0.399905			
8.440000	-0.400415			
8.450000	-0.391739			
8.460000	-0.378471			
8.470000	-0.361630			
8.480000	-0.340196			
8.490000	-0.313149			
8.500000	-0.281508			
8.510000	-0.247826			
8.520000	-0.211083			
8.530000	-0.173829			
8.540000	-0.130961			
8.550000	-0.086562			
8.560000	-0.041653			
8.570000	0.003256			
8.580000	0.046124			
8.590000	0.089502			
8.600000	0.130328			
8.610000	0.170134			
8.620000	0.205857			
8.630000	0.238518			
8.640000	0.268117			
8.650000	0.295164			
8.660000	0.315067			
8.670000	0.332419			
8.680000	0.343646			
8.690000	0.348749			
8.700000	0.351301			
8.710000	0.347218			
8.720000	0.339563			
8.730000	0.325784			
8.740000	0.307923			
8.750000	0.281896			
8.760000	0.254338			
8.770000	0.221677			
8.780000	0.191057			
8.790000	0.150741			
8.800000	0.110935			
8.810000	0.067047			
8.820000	0.026221			
8.830000	-0.017668			
8.840000	-0.062066			
8.850000	-0.103913			
8.860000	-0.144740			
8.870000	-0.185056			
8.880000	-0.221289			
8.890000	-0.255481			
8.900000	-0.287122			
8.910000	-0.315700			
8.920000	-0.340706			
8.930000	-0.360609			
8.940000	-0.373878			
8.950000	-0.383064			
8.960000	-0.385105			
8.970000	-0.385615			
8.980000	-0.378981			
8.990000	-0.369795			
9.000000	-0.351934			
9.010000	-0.332541			
9.020000	-0.308045			
9.030000	-0.276915			
9.040000	-0.244764			
9.050000	-0.209552			
9.060000	-0.172298			
9.070000	-0.132492			
9.080000	-0.092176			
9.090000	-0.047777			
9.100000	-0.004399			
9.110000	0.037958			
9.120000	0.080316			
9.130000	0.122673			
9.140000	0.160437			
9.150000	0.198202			
9.160000	0.234435			
9.170000	0.264034			
9.180000	0.294144			
9.190000	0.311495			
9.200000	0.331398			
9.210000	0.344156			
9.220000	0.350280			
9.230000	0.353342			
9.240000	0.351811			
9.250000	0.345177			
9.260000	0.331398			
9.270000	0.313536			
9.280000	0.292102			
9.290000	0.268117			
9.300000	0.236987			
9.310000	0.205857			
9.320000	0.168603			
9.330000	0.129307			
9.340000	0.088991			
9.350000	0.047655			
9.360000	0.003256			
9.370000	-0.039102			
9.380000	-0.085542			
9.390000	-0.124327			
9.400000	-0.165663			
9.410000	-0.205979			
9.420000	-0.237620			
9.430000	-0.269771			
9.440000	-0.300901			
9.450000	-0.323865			
9.460000	-0.346320			
9.470000	-0.363161			
9.480000	-0.371836			
9.490000	-0.378471			
9.500000	-0.381022			
9.510000	-0.376429			
9.520000	-0.367754			
9.530000	-0.358058			
9.540000	-0.337644			
9.550000	-0.316721			
9.560000	-0.289163			
9.570000	-0.258543			
9.580000	-0.224862			
9.590000	-0.187607			
9.600000	-0.150864			
9.610000	-0.108506			
9.620000	-0.065128			
9.630000	-0.026343			
9.640000	0.016524			
9.650000	0.060413			
9.660000	0.103791			
9.670000	0.139514			
9.680000	0.174216			
9.690000	0.209429			
9.700000	0.240559			
9.710000	0.269138			
9.720000	0.293123			
9.730000	0.313026			
9.740000	0.325784			
9.750000	0.336501			
9.760000	0.338542			
9.770000	0.337011			
9.780000	0.333949			
9.790000	0.324764			
9.800000	0.308943			
9.810000	0.288530			
9.820000	0.261993			
9.830000	0.234946			
9.840000	0.202284			
9.850000	0.166051			
9.860000	0.127776			
9.870000	0.088991			
9.880000	0.050206			
9.890000	0.007338			
9.900000	-0.035529			
9.910000	-0.078397			
9.920000	-0.119223			
9.930000	-0.159029			
9.940000	-0.199345			
9.950000	-0.235578			
9.960000	-0.268240			
9.970000	-0.295287			
9.980000	-0.325396			
9.990000	-0.346830			
10.000000	-0.364182			
10.010000	-0.376429			
10.020000	-0.383574			
10.030000	-0.387657			
10.040000	-0.384595			
10.050000	-0.378471			
10.060000	-0.366223			
10.070000	-0.349892			
10.080000	-0.333562			
10.090000	-0.306004			
10.100000	-0.275894			
10.110000	-0.244254			
10.120000	-0.210572			
10.130000	-0.170256			
10.140000	-0.131471			
10.150000	-0.089624			
10.160000	-0.050839			
10.170000	-0.005930			
10.180000	0.038979			
10.190000	0.078785			
10.200000	0.117059			
10.210000	0.154824			
10.220000	0.188506			
10.230000	0.223208			
10.240000	0.251786			
10.250000	0.275772			
10.260000	0.293633			
10.270000	0.311495			
10.280000	0.325784			
10.290000	0.329357			
10.300000	0.330888			
10.310000	0.329357			
10.320000	0.320171			
10.330000	0.306392			
10.340000	0.290061			
10.350000	0.267607			
10.360000	0.241580			
10.370000	0.210960			
10.380000	0.178809			
10.390000	0.139514			
10.400000	0.102770			
10.410000	0.061944			
10.420000	0.021117			
10.430000	-0.023281			
10.440000	-0.062066			
10.450000	-0.103403			
10.460000	-0.142188			
10.470000	-0.182504			
10.480000	-0.217207			
10.490000	-0.250378			
10.500000	-0.281508			
10.510000	-0.308556			
10.520000	-0.331520			
10.530000	-0.349892			
10.540000	-0.366733			
10.550000	-0.374898			
10.560000	-0.378981			
10.570000	-0.382043			
10.580000	-0.373878			
10.590000	-0.362651			
10.600000	-0.350403			
10.610000	-0.329989			
10.620000	-0.305494			
10.630000	-0.276405			
10.640000	-0.249357			
10.650000	-0.212614			
10.660000	-0.177401			
10.670000	-0.137085			
10.680000	-0.095748			
10.690000	-0.054922			
10.700000	-0.014606			
10.710000	0.027752			
10.720000	0.072150			
10.730000	0.110935			
10.740000	0.145638			
10.750000	0.184423			
10.760000	0.217594			
10.770000	0.249235			
10.780000	0.275262			
10.790000	0.296695			
10.800000	0.315067			
10.810000	0.326805			
10.820000	0.333949			
10.830000	0.341604			
10.840000	0.335991			
10.850000	0.329867			
10.860000	0.319660			
10.870000	0.302819			
10.880000	0.283937			
10.890000	0.259952			
10.900000	0.230863			
10.910000	0.198712			
10.920000	0.162479			
10.930000	0.127776			
10.940000	0.088481			
10.950000	0.046124			
10.960000	0.004277			
10.970000	-0.035529			
10.980000	-0.076356			
10.990000	-0.120244			
11.000000	-0.156477			
11.010000	-0.194752			
11.020000	-0.228434			
11.030000	-0.260074			
11.040000	-0.286611			
11.050000	-0.312128			
11.060000	-0.329479			
11.070000	-0.344279			
11.080000	-0.361120			
11.090000	-0.366223			
11.100000	-0.365713			
11.110000	-0.362140			
11.120000	-0.353465			
11.130000	-0.340706			
11.140000	-0.325396			
11.150000	-0.303452			
11.160000	-0.278956			
11.170000	-0.249868			
11.180000	-0.219248			
11.190000	-0.181483			
11.200000	-0.144740			
11.210000	-0.103913			
11.220000	-0.062577			
11.230000	-0.023281			
11.240000	0.018566			
11.250000	0.061944			
11.260000	0.097157			
11.270000	0.137473			
11.280000	0.171154			
11.290000	0.205857			
11.300000	0.234946			
11.310000	0.261993			
11.320000	0.283427			
11.330000	0.305371			
11.340000	0.318129			
11.350000	0.328336			
11.360000	0.334460			
11.370000	0.332929			
11.380000	0.327826			
11.390000	0.317109			
11.400000	0.302819			
11.410000	0.284448			
11.420000	0.262503			
11.430000	0.233415			
11.440000	0.202795			
11.450000	0.171154			
11.460000	0.134921			
11.470000	0.095115			
11.480000	0.057351			
11.490000	0.016524			
11.500000	-0.023792			
11.510000	-0.065639			
11.520000	-0.107996			
11.530000	-0.146271			
11.540000	-0.183014			
11.550000	-0.217207			
11.560000	-0.251399			
11.570000	-0.280998			
11.580000	-0.302942			
11.590000	-0.325396			
11.600000	-0.345299			
11.610000	-0.357547			
11.620000	-0.366223			
11.630000	-0.371836			
11.640000	-0.366223			
11.650000	-0.362651			
11.660000	-0.349892			
11.670000	-0.335603			
11.680000	-0.314680			
11.690000	-0.293246			
11.700000	-0.266198			
11.710000	-0.236089			
11.720000	-0.201386			
11.730000	-0.165153			
11.740000	-0.127389			
11.750000	-0.088093			
11.760000	-0.047777			
11.770000	-0.006951			
11.780000	0.030814			
11.790000	0.072150			
11.800000	0.111956			
11.810000	0.147679			
11.820000	0.180340			
11.830000	0.210960			
11.840000	0.237497			
11.850000	0.264034			
11.860000	0.283427			
11.870000	0.298737			
11.880000	0.307412			
11.890000	0.314557			
11.900000	0.318640			
11.910000	0.313536			
11.920000	0.308943			
11.930000	0.295675			
11.940000	0.280875			
11.950000	0.257400			
11.960000	0.231884			
11.970000	0.202795			
11.980000	0.171665			
11.990000	0.139004			
12.000000	0.099198			
12.010000	0.059902			
12.020000	0.021117			
12.030000	-0.019199			
12.040000	-0.060025			
12.050000	-0.100341			
12.060000	-0.138105			
12.070000	-0.175870			
12.080000	-0.213124			
12.090000	-0.244764			
12.100000	-0.274363			
12.110000	-0.300390			
12.120000	-0.324376			
12.130000	-0.343258			
12.140000	-0.356016			
12.150000	-0.365202			
12.160000	-0.371836			
12.170000	-0.369795			
12.180000	-0.368774			
12.190000	-0.358568			
12.200000	-0.342748			
12.210000	-0.323355			
12.220000	-0.304473			
12.230000	-0.279467			
12.240000	-0.246295			
12.250000	-0.214655			
12.260000	-0.178932			
12.270000	-0.141167			
12.280000	-0.100341			
12.290000	-0.063597			
12.300000	-0.022771			
12.310000	0.017545			
12.320000	0.055820			
12.330000	0.094605			
12.340000	0.133390			
12.350000	0.170644			
12.360000	0.200243			
12.370000	0.228822			
12.380000	0.257910			
12.390000	0.276793			
12.400000	0.293123			
12.410000	0.306392			
12.420000	0.314047			
12.430000	0.318640			
12.440000	0.317619			
12.450000	0.312516			
12.460000	0.303330			
12.470000	0.285979			
12.480000	0.268627			
12.490000	0.244131			
12.500000	0.217594			
12.510000	0.189016			
12.520000	0.156355			
12.530000	0.118590			
12.540000	0.082357			
12.550000	0.043572			
12.560000	0.003766			
12.570000	-0.035529			
12.580000	-0.078907			
12.590000	-0.116672			
12.600000	-0.153415			
12.610000	-0.186076			
12.620000	-0.222310			
12.630000	-0.252419			
12.640000	-0.279467			
12.650000	-0.302432			
12.660000	-0.321824			
12.670000	-0.337644			
12.680000	-0.350403			
12.690000	-0.356016			
12.700000	-0.357037			
12.710000	-0.354996			
12.720000	-0.344789			
12.730000	-0.338155			
12.740000	-0.319273			
12.750000	-0.296818			
12.760000	-0.273853			
12.770000	-0.245785			
12.780000	-0.217207			
12.790000	-0.178422			
12.800000	-0.143719			
12.810000	-0.107486			
12.820000	-0.065639			
12.830000	-0.023281			
12.840000	0.014483			
12.850000	0.051737			
12.860000	0.091033			
12.870000	0.127266			
12.880000	0.162479			
12.890000	0.194119			
12.900000	0.225760			
12.910000	0.251786			
12.920000	0.274241			
12.930000	0.294144			
12.940000	0.307923			
12.950000	0.317109			
12.960000	0.323743			
12.970000	0.325784			
12.980000	0.320681			
12.990000	0.310474			
13.000000	0.297716			
13.010000	0.279855			
13.020000	0.258421			
13.030000	0.233415			
13.040000	0.203305			
13.050000	0.171154			
13.060000	0.136452			
13.070000	0.099708			
13.080000	0.061433			
13.090000	0.022138			
13.100000	-0.017157			
13.110000	-0.055942			
13.120000	-0.096769			
13.130000	-0.135043			
13.140000	-0.165663			
13.150000	-0.203428			
13.160000	-0.238130			
13.170000	-0.261605			
13.180000	-0.286611			
13.190000	-0.306004			
13.200000	-0.324376			
13.210000	-0.338155			
13.220000	-0.348872			
13.230000	-0.351934			
13.240000	-0.348361			
13.250000	-0.344789			
13.260000	-0.335603			
13.270000	-0.319783			
13.280000	-0.298349			
13.290000	-0.280487			
13.300000	-0.253950			
13.310000	-0.224351			
13.320000	-0.191690			
13.330000	-0.155967			
13.340000	-0.119734			
13.350000	-0.082480			
13.360000	-0.044715			
13.370000	-0.003889			
13.380000	0.034386			
13.390000	0.070619			
13.400000	0.107363			
13.410000	0.143086			
13.420000	0.175747			
13.430000	0.204836			
13.440000	0.232904			
13.450000	0.257910			
13.460000	0.275262			
13.470000	0.290061			
13.480000	0.300268			
13.490000	0.310474			
13.500000	0.311495			
13.510000	0.308943			
13.520000	0.301288			
13.530000	0.289040			
13.540000	0.274241			
13.550000	0.254848			
13.560000	0.227801			
13.570000	0.201774			
13.580000	0.172175			
13.590000	0.139514			
13.600000	0.102770			
13.610000	0.063985			
13.620000	0.027241			
13.630000	-0.013585			
13.640000	-0.050329			
13.650000	-0.089114			
13.660000	-0.127899			
13.670000	-0.166174			
13.680000	-0.197304			
13.690000	-0.228944			
13.700000	-0.261605			
13.710000	-0.285591			
13.720000	-0.308556			
13.730000	-0.325907			
13.740000	-0.342748			
13.750000	-0.350913			
13.760000	-0.357547			
13.770000	-0.357037			
13.780000	-0.354996			
13.790000	-0.345299			
13.800000	-0.332031			
13.810000	-0.317231			
13.820000	-0.294777			
13.830000	-0.269771			
13.840000	-0.243233			
13.850000	-0.212103			
13.860000	-0.175870			
13.870000	-0.142188			
13.880000	-0.104424			
13.890000	-0.068190			
13.900000	-0.028895			
13.910000	0.010911			
13.920000	0.047144			
13.930000	0.086440			
13.940000	0.119611			
13.950000	0.155844			
13.960000	0.185444			
13.970000	0.214022			
13.980000	0.238518			
13.990000	0.258931			
14.000000	0.278834			
14.010000	0.289551			
14.020000	0.297716			
14.030000	0.304861			
14.040000	0.302309			
14.050000	0.295164			
14.060000	0.284958			
14.070000	0.271179			
14.080000	0.252807			
14.090000	0.231373			
14.100000	0.206367			
14.110000	0.178299			
14.120000	0.147679			
14.130000	0.109915			
14.140000	0.077764			
14.150000	0.037958			
14.160000	0.000194			
14.170000	-0.036550			
14.180000	-0.079418			
14.190000	-0.116161			
14.200000	-0.150353			
14.210000	-0.185566			
14.220000	-0.216186			
14.230000	-0.245785			
14.240000	-0.274363			
14.250000	-0.297328			
14.260000	-0.316211			
14.270000	-0.332541			
14.280000	-0.343258			
14.290000	-0.351934			
14.300000	-0.350403			
14.310000	-0.347851			
14.320000	-0.341727			
14.330000	-0.333051			
14.340000	-0.315700			
14.350000	-0.295287			
14.360000	-0.272833			
14.370000	-0.245785			
14.380000	-0.217717			
14.390000	-0.183525			
14.400000	-0.149843			
14.410000	-0.110548			
14.420000	-0.071252			
14.430000	-0.035529			
14.440000	0.003256			
14.450000	0.043062			
14.460000	0.077764			
14.470000	0.111956			
14.480000	0.149210			
14.490000	0.182892			
14.500000	0.210450			
14.510000	0.235966			
14.520000	0.258421			
14.530000	0.276793			
14.540000	0.292613			
14.550000	0.301799			
14.560000	0.306392			
14.570000	0.308943			
14.580000	0.305371			
14.590000	0.298226			
14.600000	0.284958			
14.610000	0.267096			
14.620000	0.249745			
14.630000	0.225760			
14.640000	0.196160			
14.650000	0.166051			
14.660000	0.133900			
14.670000	0.097157			
14.680000	0.061944			
14.690000	0.024690			
14.700000	-0.015116			
14.710000	-0.051860			
14.720000	-0.087583			
14.730000	-0.124327			
14.740000	-0.159539			
14.750000	-0.192200			
14.760000	-0.223841			
14.770000	-0.250378			
14.780000	-0.275894			
14.790000	-0.296308			
14.800000	-0.312128			
14.810000	-0.324376			
14.820000	-0.333562			
14.830000	-0.338155			
14.840000	-0.337644			
14.850000	-0.331520			
14.860000	-0.322334			
14.870000	-0.306004			
14.880000	-0.291715			
14.890000	-0.268750			
14.900000	-0.244764			
14.910000	-0.217207			
14.920000	-0.184545			
14.930000	-0.150864			
14.940000	-0.117182			
14.950000	-0.080949			
14.960000	-0.042674			
14.970000	-0.002868			
14.980000	0.032855			
14.990000	0.067557			
15.000000	0.105832			
15.010000	0.140535			
15.020000	0.170644			
15.030000	0.203815			
15.040000	0.228822			
15.050000	0.251276			
15.060000	0.270158			
15.070000	0.286999			
15.080000	0.296695			
15.090000	0.301288			
15.100000	0.305881			
15.110000	0.304861			
15.120000	0.300268			
15.130000	0.284448			
15.140000	0.272710			
15.150000	0.251786			
15.160000	0.229332			
15.170000	0.205346			
15.180000	0.174727			
15.190000	0.140024			
15.200000	0.107363			
15.210000	0.071640			
15.220000	0.031324			
15.230000	-0.006440			
15.240000	-0.041143			
15.250000	-0.077376			
15.260000	-0.116161			
15.270000	-0.152395			
15.280000	-0.186076			
15.290000	-0.214655			
15.300000	-0.242213			
15.310000	-0.269771			
15.320000	-0.292225			
15.330000	-0.307535			
15.340000	-0.321824			
15.350000	-0.333051			
15.360000	-0.338155			
15.370000	-0.341727			
15.380000	-0.337134			
15.390000	-0.327438			
15.400000	-0.319273			
15.410000	-0.303963			
15.420000	-0.280998			
15.430000	-0.257012			
15.440000	-0.235578			
15.450000	-0.203428			
15.460000	-0.172298			
15.470000	-0.137595			
15.480000	-0.101872			
15.490000	-0.065128			
15.500000	-0.028385			
15.510000	0.008869			
15.520000	0.045613			
15.530000	0.083888			
15.540000	0.115018			
15.550000	0.146658			
15.560000	0.178809			
15.570000	0.203305			
15.580000	0.230353			
15.590000	0.249235			
15.600000	0.266586			
15.610000	0.279855			
15.620000	0.284958			
15.630000	0.291592			
15.640000	0.286999			
15.650000	0.284448			
15.660000	0.276282			
15.670000	0.259441			
15.680000	0.245662			
15.690000	0.222187			
15.700000	0.199222			
15.710000	0.173706			
15.720000	0.140024			
15.730000	0.108894			
15.740000	0.074702			
15.750000	0.037958			
15.760000	0.000704			
15.770000	-0.038081			
15.780000	-0.073804			
15.790000	-0.110037			
15.800000	-0.144740			
15.810000	-0.182504			
15.820000	-0.209552			
15.830000	-0.241192			
15.840000	-0.264667			
15.850000	-0.289163			
15.860000	-0.307535			
15.870000	-0.322845			
15.880000	-0.332031			
15.890000	-0.339686			
15.900000	-0.342748			
15.910000	-0.341217			
15.920000	-0.336113			
15.930000	-0.323355			
15.940000	-0.309576			
15.950000	-0.293246			
15.960000	-0.272322			
15.970000	-0.246295			
15.980000	-0.213124			
15.990000	-0.185056			
16.000000	-0.151374			
16.010000	-0.117692			
16.020000	-0.079418			
16.030000	-0.042674			
16.040000	-0.003889			
16.050000	0.031324			
16.060000	0.066537			
16.070000	0.102260			
16.080000	0.137473			
16.090000	0.164520			
16.100000	0.193099			
16.110000	0.219636			
16.120000	0.244131			
16.130000	0.257400			
16.140000	0.272710			
16.150000	0.282917			
16.160000	0.290061			
16.170000	0.292102			
16.180000	0.286999			
16.190000	0.279344			
16.200000	0.269648			
16.210000	0.254848			
16.220000	0.235966			
16.230000	0.211470			
16.240000	0.185444			
16.250000	0.156355			
16.260000	0.124714			
16.270000	0.090522			
16.280000	0.054799			
16.290000	0.021117			
16.300000	-0.015626			
16.310000	-0.053391			
16.320000	-0.089114			
16.330000	-0.125347			
16.340000	-0.159539			
16.350000	-0.189138			
16.360000	-0.219758			
16.370000	-0.247316			
16.380000	-0.269260			
16.390000	-0.290694			
16.400000	-0.304983			
16.410000	-0.318252			
16.420000	-0.327438			
16.430000	-0.331010			
16.440000	-0.328969			
16.450000	-0.325396			
16.460000	-0.315700			
16.470000	-0.303452			
16.480000	-0.286101			
16.490000	-0.263647			
16.500000	-0.240682			
16.510000	-0.214655			
16.520000	-0.185566			
16.530000	-0.151884			
16.540000	-0.116161			
16.550000	-0.083500			
16.560000	-0.045225			
16.570000	-0.010013			
16.580000	0.025710			
16.590000	0.062964			
16.600000	0.097157			
16.610000	0.132369			
16.620000	0.161968			
16.630000	0.191568			
16.640000	0.219636			
16.650000	0.240559			
16.660000	0.259952			
16.670000	0.277303			
16.680000	0.285979			
16.690000	0.292102			
16.700000	0.294654			
16.710000	0.295675			
16.720000	0.288530			
16.730000	0.278324			
16.740000	0.263524			
16.750000	0.246173			
16.760000	0.225760			
16.770000	0.200243			
16.780000	0.172175			
16.790000	0.141045			
16.800000	0.110935			
16.810000	0.075723			
16.820000	0.037958			
16.830000	-0.000316			
16.840000	-0.033488			
16.850000	-0.069721			
16.860000	-0.103403			
16.870000	-0.139636			
16.880000	-0.170256			
16.890000	-0.201386			
16.900000	-0.228434			
16.910000	-0.252930			
16.920000	-0.275894			
16.930000	-0.292735			
16.940000	-0.305494			
16.950000	-0.313659			
16.960000	-0.323355			
16.970000	-0.324886			
16.980000	-0.319783			
16.990000	-0.312128			
17.000000	-0.302942			
17.010000	-0.287122			
17.020000	-0.267729			
17.030000	-0.245785			
17.040000	-0.222310			
17.050000	-0.193221			
17.060000	-0.160050			
17.070000	-0.128409			
17.080000	-0.094727			
17.090000	-0.060025			
17.100000	-0.025833			
17.110000	0.010911			
17.120000	0.046124			
17.130000	0.081847			
17.140000	0.113487			
17.150000	0.145128			
17.160000	0.174727			
17.170000	0.198712			
17.180000	0.224739			
17.190000	0.245152			
17.200000	0.259441			
17.210000	0.272710			
17.220000	0.281896			
17.230000	0.284958			
17.240000	0.284958			
17.250000	0.278324			
17.260000	0.272710			
17.270000	0.259441			
17.280000	0.239028			
17.290000	0.221677			
17.300000	0.198712			
17.310000	0.171154			
17.320000	0.140024			
17.330000	0.109915			
17.340000	0.074702			
17.350000	0.042041			
17.360000	0.007849			
17.370000	-0.029405			
17.380000	-0.065128			
17.390000	-0.101362			
17.400000	-0.134023			
17.410000	-0.168215			
17.420000	-0.200366			
17.430000	-0.225372			
17.440000	-0.251909			
17.450000	-0.274874			
17.460000	-0.294777			
17.470000	-0.307535			
17.480000	-0.321314			
17.490000	-0.327438			
17.500000	-0.328969			
17.510000	-0.327948			
17.520000	-0.322334			
17.530000	-0.315700			
17.540000	-0.299370			
17.550000	-0.283039			
17.560000	-0.263136			
17.570000	-0.240682			
17.580000	-0.211083			
17.590000	-0.182504			
17.600000	-0.151374			
17.610000	-0.116672			
17.620000	-0.081969			
17.630000	-0.048287			
17.640000	-0.011033			
17.650000	0.024690			
17.660000	0.058371			
17.670000	0.094605			
17.680000	0.124714			
17.690000	0.152272			
17.700000	0.179320			
17.710000	0.205346			
17.720000	0.225760			
17.730000	0.243621			
17.740000	0.258421			
17.750000	0.267096			
17.760000	0.273731			
17.770000	0.272200			
17.780000	0.272200			
17.790000	0.266076			
17.800000	0.255869			
17.810000	0.241069			
17.820000	0.225249			
17.830000	0.197691			
17.840000	0.174216			
17.850000	0.147679			
17.860000	0.116039			
17.870000	0.081847			
17.880000	0.050206			
17.890000	0.014483			
17.900000	-0.019709			
17.910000	-0.056453			
17.920000	-0.092176			
17.930000	-0.123816			
17.940000	-0.156988			
17.950000	-0.187097			
17.960000	-0.216696			
17.970000	-0.240682			
17.980000	-0.266198			
17.990000	-0.283039			
18.000000	-0.298859			
18.010000	-0.315700			
18.020000	-0.321824			
18.030000	-0.324886			
18.040000	-0.325396			
18.050000	-0.322845			
18.060000	-0.313149			
18.070000	-0.300901			
18.080000	-0.285080			
18.090000	-0.264157			
18.100000	-0.240682			
18.110000	-0.216186			
18.120000	-0.187097			
18.130000	-0.153926			
18.140000	-0.121265			
18.150000	-0.089624			
18.160000	-0.054922			
18.170000	-0.020219			
18.180000	0.017545			
18.190000	0.051227			
18.200000	0.086440			
18.210000	0.119611			
18.220000	0.149210			
18.230000	0.177278			
18.240000	0.202284			
18.250000	0.223718			
18.260000	0.243111			
18.270000	0.258421			
18.280000	0.270158			
18.290000	0.276793			
18.300000	0.280365			
18.310000	0.281386			
18.320000	0.276793			
18.330000	0.266076			
18.340000	0.251786			
18.350000	0.238008			
18.360000	0.216574			
18.370000	0.192588			
18.380000	0.166561			
18.390000	0.136452			
18.400000	0.104811			
18.410000	0.072661			
18.420000	0.040000			
18.430000	0.001725			
18.440000	-0.032467			
18.450000	-0.064618			
18.460000	-0.098810			
18.470000	-0.133513			
18.480000	-0.164132			
18.490000	-0.191690			
18.500000	-0.219248			
18.510000	-0.244254			
18.520000	-0.265178			
18.530000	-0.279977			
18.540000	-0.295287			
18.550000	-0.302942			
18.560000	-0.311107			
18.570000	-0.313149			
18.580000	-0.307535			
18.590000	-0.301921			
18.600000	-0.292225			
18.610000	-0.279467			
18.620000	-0.258543			
18.630000	-0.237620			
18.640000	-0.211083			
18.650000	-0.187097			
18.660000	-0.155967			
18.670000	-0.124837			
18.680000	-0.091155			
18.690000	-0.057984			
18.700000	-0.024302			
18.710000	0.011421			
18.720000	0.044082			
18.730000	0.079805			
18.740000	0.111446			
18.750000	0.141555			
18.760000	0.171665			
18.770000	0.198712			
18.780000	0.218615			
18.790000	0.237497			
18.800000	0.254848			
18.810000	0.269138			
18.820000	0.274751			
18.830000	0.278324			
18.840000	0.280365			
18.850000	0.275262			
18.860000	0.267607			
18.870000	0.256379			
18.880000	0.238518			
18.890000	0.219636			
18.900000	0.198712			
18.910000	0.172685			
18.920000	0.145638			
18.930000	0.112466			
18.940000	0.082867			
18.950000	0.048165			
18.960000	0.012952			
18.970000	-0.021750			
18.980000	-0.054922			
18.990000	-0.089114			
19.000000	-0.121775			
19.010000	-0.153415			
19.020000	-0.183525			
19.030000	-0.211593			
19.040000	-0.235578			
19.050000	-0.255992			
19.060000	-0.277425			
19.070000	-0.291204			
19.080000	-0.302942			
19.090000	-0.309066			
19.100000	-0.315190			
19.110000	-0.312638			
19.120000	-0.307025			
19.130000	-0.298349			
19.140000	-0.284570			
19.150000	-0.270791			
19.160000	-0.251399			
19.170000	-0.229454			
19.180000	-0.202407			
19.190000	-0.173829			
19.200000	-0.145760			
19.210000	-0.111058			
19.220000	-0.077887			
19.230000	-0.044715			
19.240000	-0.011033			
19.250000	0.023669			
19.260000	0.057351			
19.270000	0.091543			
19.280000	0.121652			
19.290000	0.147679			
19.300000	0.173196			
19.310000	0.197181			
19.320000	0.217084			
19.330000	0.235456			
19.340000	0.248214			
19.350000	0.258421			
19.360000	0.264545			
19.370000	0.265055			
19.380000	0.260972			
19.390000	0.255359			
19.400000	0.248214			
19.410000	0.231884			
19.420000	0.216063			
19.430000	0.193099			
19.440000	0.170134			
19.450000	0.142576			
19.460000	0.114508			
19.470000	0.083888			
19.480000	0.047655			
19.490000	0.016014			
19.500000	-0.017157			
19.510000	-0.054411			
19.520000	-0.088093			
19.530000	-0.118713			
19.540000	-0.149843			
19.550000	-0.180973			
19.560000	-0.209552			
19.570000	-0.233027			
19.580000	-0.257012			
19.590000	-0.276915			
19.600000	-0.291204			
19.610000	-0.306004			
19.620000	-0.310087			
19.630000	-0.316721			
19.640000	-0.316721			
19.650000	-0.315190			
19.660000	-0.306004			
19.670000	-0.294266			
19.680000	-0.279977			
19.690000	-0.262626			
19.700000	-0.241192			
19.710000	-0.214655			
19.720000	-0.187097			
19.730000	-0.157498			
19.740000	-0.126368			
19.750000	-0.094727			
19.760000	-0.061046			
19.770000	-0.023281			
19.780000	0.006828			
19.790000	0.041531			
19.800000	0.074702			
19.810000	0.106342			
19.820000	0.136452			
19.830000	0.160948			
19.840000	0.185954			
19.850000	0.209429			
19.860000	0.227291			
19.870000	0.241069			
19.880000	0.251786			
19.890000	0.259952			
19.900000	0.263524			
19.910000	0.263524			
19.920000	0.259441			
19.930000	0.250255			
19.940000	0.236987			
19.950000	0.221677			
19.960000	0.203305			
19.970000	0.178809			
19.980000	0.153803			
19.990000	0.128287			
20.000000	0.097667			
20.010000	0.064495			
20.020000	0.032855			
20.030000	-0.001337			
20.040000	-0.034509			
20.050000	-0.067170			
20.060000	-0.099320			
20.070000	-0.133513			
20.080000	-0.162091			
20.090000	-0.190669			
20.100000	-0.216186			
20.110000	-0.240171			
20.120000	-0.261095			
20.130000	-0.274363			
20.140000	-0.287632			
20.150000	-0.298859			
20.160000	-0.303452			
20.170000	-0.307535			
20.180000	-0.303963			
20.190000	-0.297839			
20.200000	-0.287122			
20.210000	-0.273853			
20.220000	-0.253950			
20.230000	-0.234047			
20.240000	-0.211593			
20.250000	-0.188118			
20.260000	-0.156477			
20.270000	-0.125347			
20.280000	-0.092686			
20.290000	-0.061556			
20.300000	-0.027874			
20.310000	0.007849			
20.320000	0.036427			
20.330000	0.071640			
20.340000	0.103280			
20.350000	0.133390			
20.360000	0.161968			
20.370000	0.190547			
20.380000	0.207388			
20.390000	0.227291			
20.400000	0.245152			
20.410000	0.258421			
20.420000	0.266076			
20.430000	0.269648			
20.440000	0.269648			
20.450000	0.268117			
20.460000	0.260462			
20.470000	0.248724			
20.480000	0.235966			
20.490000	0.214532			
20.500000	0.195140			
20.510000	0.171665			
20.520000	0.143086			
20.530000	0.115018			
20.540000	0.084398			
20.550000	0.053778			
20.560000	0.017545			
20.570000	-0.016137			
20.580000	-0.046246			
20.590000	-0.078397			
20.600000	-0.112589			
20.610000	-0.142188			
20.620000	-0.172298			
20.630000	-0.199345			
20.640000	-0.221289			
20.650000	-0.243233			
20.660000	-0.262116			
20.670000	-0.277936			
20.680000	-0.285080			
20.690000	-0.291715			
20.700000	-0.298859			
20.710000	-0.298859			
20.720000	-0.291204			
20.730000	-0.284060			
20.740000	-0.271812			
20.750000	-0.256502			
20.760000	-0.238130			
20.770000	-0.218227			
20.780000	-0.190669			
20.790000	-0.164132			
20.800000	-0.136574			
20.810000	-0.105444			
20.820000	-0.073804			
20.830000	-0.038081			
20.840000	-0.008992			
20.850000	0.025710			
20.860000	0.060413			
20.870000	0.088481			
20.880000	0.118080			
20.890000	0.147679			
20.900000	0.171665			
20.910000	0.193609			
20.920000	0.213512			
20.930000	0.230353			
20.940000	0.242600			
20.950000	0.252297			
20.960000	0.259952			
20.970000	0.261993			
20.980000	0.257400			
20.990000	0.253828			
21.000000	0.244131			
21.010000	0.229842			
21.020000	0.209939			
21.030000	0.192078			
21.040000	0.170134			
21.050000	0.143597			
21.060000	0.115018			
21.070000	0.084398			
21.080000	0.053778			
21.090000	0.020607			
21.100000	-0.010523			
21.110000	-0.044715			
21.120000	-0.075845			
21.130000	-0.109527			
21.140000	-0.138616			
21.150000	-0.170256			
21.160000	-0.197304			
21.170000	-0.218227			
21.180000	-0.242723			
21.190000	-0.261095			
21.200000	-0.278446			
21.210000	-0.288653			
21.220000	-0.296818			
21.230000	-0.302942			
21.240000	-0.302942			
21.250000	-0.301411			
21.260000	-0.295797			
21.270000	-0.285080			
21.280000	-0.269260			
21.290000	-0.252419			
21.300000	-0.233537			
21.310000	-0.209552			
21.320000	-0.183525			
21.330000	-0.153926			
21.340000	-0.125347			
21.350000	-0.094727			
21.360000	-0.061046			
21.370000	-0.030936			
21.380000	0.004787			
21.390000	0.034896			
21.400000	0.065516			
21.410000	0.097157			
21.420000	0.126756			
21.430000	0.151251			
21.440000	0.174727			
21.450000	0.196671			
21.460000	0.213001			
21.470000	0.230863			
21.480000	0.239539			
21.490000	0.245152			
21.500000	0.251276			
21.510000	0.250766			
21.520000	0.242600			
21.530000	0.238008			
21.540000	0.224739			
21.550000	0.209429			
21.560000	0.193099			
21.570000	0.171665			
21.580000	0.144107			
21.590000	0.119101			
21.600000	0.091033			
21.610000	0.058371			
21.620000	0.028772			
21.630000	-0.003889			
21.640000	-0.036040			
21.650000	-0.068190			
21.660000	-0.100341			
21.670000	-0.131982			
21.680000	-0.162091			
21.690000	-0.187097			
21.700000	-0.213634			
21.710000	-0.233537			
21.720000	-0.258033			
21.730000	-0.271302			
21.740000	-0.283549			
21.750000	-0.294266			
21.760000	-0.299880			
21.770000	-0.298349			
21.780000	-0.298859			
21.790000	-0.293756			
21.800000	-0.285080			
21.810000	-0.271812			
21.820000	-0.254461			
21.830000	-0.235578			
21.840000	-0.215165			
21.850000	-0.187097			
21.860000	-0.160560			
21.870000	-0.127899			
21.880000	-0.098300			
21.890000	-0.069211			
21.900000	-0.037571			
21.910000	-0.002358			
21.920000	0.030303			
21.930000	0.061433			
21.940000	0.090522			
21.950000	0.120632			
21.960000	0.146658			
21.970000	0.170644			
21.980000	0.194119			
21.990000	0.213001			
22.000000	0.227801			
22.010000	0.241069			
22.020000	0.248724			
22.030000	0.254848			
22.040000	0.254338			
22.050000	0.252807			
22.060000	0.249745			
22.070000	0.234435			
22.080000	0.222698			
22.090000	0.205857			
22.100000	0.185954			
22.110000	0.162989			
22.120000	0.133390			
22.130000	0.108894			
22.140000	0.079805			
22.150000	0.048165			
22.160000	0.018055			
22.170000	-0.015626			
22.180000	-0.046756			
22.190000	-0.078397			
22.200000	-0.107486			
22.210000	-0.138616			
22.220000	-0.166174			
22.230000	-0.190669			
22.240000	-0.215165			
22.250000	-0.234047			
22.260000	-0.253950			
22.270000	-0.266709			
22.280000	-0.277425			
22.290000	-0.284060			
22.300000	-0.289673			
22.310000	-0.288653			
22.320000	-0.283039			
22.330000	-0.274874			
22.340000	-0.261095			
22.350000	-0.248847			
22.360000	-0.231496			
22.370000	-0.210062			
22.380000	-0.186076			
22.390000	-0.160560			
22.400000	-0.131471			
22.410000	-0.101362			
22.420000	-0.071763			
22.430000	-0.037571			
22.440000	-0.007971			
22.450000	0.024179			
22.460000	0.056840			
22.470000	0.087460			
22.480000	0.116549			
22.490000	0.143086			
22.500000	0.166561			
22.510000	0.189016			
22.520000	0.211981			
22.530000	0.225760			
22.540000	0.238518			
22.550000	0.247704			
22.560000	0.254848			
22.570000	0.259952			
22.580000	0.254338			
22.590000	0.250255			
22.600000	0.239539			
22.610000	0.228822			
22.620000	0.214022			
22.630000	0.191057			
22.640000	0.169113			
22.650000	0.147679			
22.660000	0.122163			
22.670000	0.089502			
22.680000	0.059392			
22.690000	0.030303			
22.700000	-0.002868			
22.710000	-0.035019			
22.720000	-0.064108			
22.730000	-0.097279			
22.740000	-0.126368			
22.750000	-0.155967			
22.760000	-0.182504			
22.770000	-0.208531			
22.780000	-0.227923			
22.790000	-0.243744			
22.800000	-0.260074			
22.810000	-0.272833			
22.820000	-0.283039			
22.830000	-0.286101			
22.840000	-0.288653			
22.850000	-0.286101			
22.860000	-0.280487			
22.870000	-0.270281			
22.880000	-0.257012			
22.890000	-0.238640			
22.900000	-0.219758			
22.910000	-0.198835			
22.920000	-0.172298			
22.930000	-0.145760			
22.940000	-0.116672			
22.950000	-0.089114			
22.960000	-0.057984			
22.970000	-0.025323			
22.980000	0.004277			
22.990000	0.034386			
23.000000	0.065006			
23.010000	0.095115			
23.020000	0.121142			
23.030000	0.146658			
23.040000	0.169113			
23.050000	0.187485			
23.060000	0.206877			
23.070000	0.219636			
23.080000	0.230863			
23.090000	0.238008			
23.100000	0.240049			
23.110000	0.240559			
23.120000	0.239028			
23.130000	0.228822			
23.140000	0.220146			
23.150000	0.203815			
23.160000	0.186975			
23.170000	0.165030			
23.180000	0.141555			
23.190000	0.115528			
23.200000	0.089502			
23.210000	0.059392			
23.220000	0.029283			
23.230000	-0.002358			
23.240000	-0.033998			
23.250000	-0.062066			
23.260000	-0.093196			
23.270000	-0.126368			
23.280000	-0.154436			
23.290000	-0.180463			
23.300000	-0.205979			
23.310000	-0.229454			
23.320000	-0.247316			
23.330000	-0.263136			
23.340000	-0.274874			
23.350000	-0.286101			
23.360000	-0.291715			
23.370000	-0.296818			
23.380000	-0.291715			
23.390000	-0.286611			
23.400000	-0.276405			
23.410000	-0.266709			
23.420000	-0.252930			
23.430000	-0.231496			
23.440000	-0.211593			
23.450000	-0.189138			
23.460000	-0.160560			
23.470000	-0.131471			
23.480000	-0.103913			
23.490000	-0.071252			
23.500000	-0.042674			
23.510000	-0.012564			
23.520000	0.018055			
23.530000	0.050206			
23.540000	0.081336			
23.550000	0.108894			
23.560000	0.132880			
23.570000	0.158396			
23.580000	0.179830			
23.590000	0.195140			
23.600000	0.212491			
23.610000	0.225249			
23.620000	0.231373			
23.630000	0.239539			
23.640000	0.240559			
23.650000	0.235456			
23.660000	0.230353			
23.670000	0.221167			
23.680000	0.208408			
23.690000	0.192078			
23.700000	0.171665			
23.710000	0.152272			
23.720000	0.126245			
23.730000	0.099198			
23.740000	0.071130			
23.750000	0.043062			
23.760000	0.012952			
23.770000	-0.016647			
23.780000	-0.049818			
23.790000	-0.081459			
23.800000	-0.109527			
23.810000	-0.136064			
23.820000	-0.165663			
23.830000	-0.189649			
23.840000	-0.213124			
23.850000	-0.230475			
23.860000	-0.247316			
23.870000	-0.264667			
23.880000	-0.272833			
23.890000	-0.280487			
23.900000	-0.283039			
23.910000	-0.281508			
23.920000	-0.277425			
23.930000	-0.271302			
23.940000	-0.260585			
23.950000	-0.243744			
23.960000	-0.228434			
23.970000	-0.209041			
23.980000	-0.185566			
23.990000	-0.160050			
24.000000	-0.131471			
24.010000	-0.103403			
24.020000	-0.074825			
24.030000	-0.041653			
24.040000	-0.012054			
24.050000	0.016524			
24.060000	0.049186			
24.070000	0.080316			
24.080000	0.107363			
24.090000	0.133390			
24.100000	0.157886			
24.110000	0.178809			
24.120000	0.199222			
24.130000	0.216063			
24.140000	0.228311			
24.150000	0.236987			
24.160000	0.243111			
24.170000	0.248724			
24.180000	0.246683			
24.190000	0.239028			
24.200000	0.230863			
24.210000	0.221677			
24.220000	0.208408			
24.230000	0.188506			
24.240000	0.168603			
24.250000	0.143086			
24.260000	0.118080			
24.270000	0.091033			
24.280000	0.060413			
24.290000	0.030303			
24.300000	0.000194			
24.310000	-0.027364			
24.320000	-0.060025			
24.330000	-0.089114			
24.340000	-0.119734			
24.350000	-0.144740			
24.360000	-0.171277			
24.370000	-0.192711			
24.380000	-0.214655			
24.390000	-0.234558			
24.400000	-0.246295			
24.410000	-0.259054			
24.420000	-0.270791			
24.430000	-0.273343			
24.440000	-0.274363			
24.450000	-0.270281			
24.460000	-0.266198			
24.470000	-0.257012			
24.480000	-0.243744			
24.490000	-0.227923			
24.500000	-0.209552			
24.510000	-0.186076			
24.520000	-0.164132			
24.530000	-0.139636			
24.540000	-0.110037			
24.550000	-0.080949			
24.560000	-0.054411			
24.570000	-0.021750			
24.580000	0.007338			
24.590000	0.037958			
24.600000	0.066537			
24.610000	0.093074			
24.620000	0.122673			
24.630000	0.145128			
24.640000	0.167072			
24.650000	0.187995			
24.660000	0.204326			
24.670000	0.217594			
24.680000	0.227801			
24.690000	0.238008			
24.700000	0.237497			
24.710000	0.238008			
24.720000	0.231884			
24.730000	0.227801			
24.740000	0.216574			
24.750000	0.201264			
24.760000	0.184933			
24.770000	0.167582			
24.780000	0.143086			
24.790000	0.117059			
24.800000	0.091543			
24.810000	0.062454			
24.820000	0.035407			
24.830000	0.005297			
24.840000	-0.025833			
24.850000	-0.055942			
24.860000	-0.087072			
24.870000	-0.117182			
24.880000	-0.145760			
24.890000	-0.169746			
24.900000	-0.192711			
24.910000	-0.212103			
24.920000	-0.234047			
24.930000	-0.248847			
24.940000	-0.262116			
24.950000	-0.269771			
24.960000	-0.278446			
24.970000	-0.278956			
24.980000	-0.278446			
24.990000	-0.275894			
25.000000	-0.266198			
25.010000	-0.254461			
25.020000	-0.241702			
25.030000	-0.225882			
25.040000	-0.202407			
25.050000	-0.180973			
25.060000	-0.154946			
25.070000	-0.130961			
25.080000	-0.100851			
25.090000	-0.071763			
25.100000	-0.043694			
25.110000	-0.014095			
25.120000	0.016524			
25.130000	0.045103			
25.140000	0.072150			
25.150000	0.100218			
25.160000	0.123183			
25.170000	0.148189			
25.180000	0.170134			
25.190000	0.187485			
25.200000	0.199222			
25.210000	0.213001			
25.220000	0.222187			
25.230000	0.226780			
25.240000	0.227801			
25.250000	0.223718			
25.260000	0.218615			
25.270000	0.212491			
25.280000	0.198202			
25.290000	0.182892			
25.300000	0.166051			
25.310000	0.141045			
25.320000	0.118590			
25.330000	0.094095			
25.340000	0.064495			
25.350000	0.037448			
25.360000	0.007338			
25.370000	-0.017157			
25.380000	-0.050329			
25.390000	-0.081969			
25.400000	-0.110037			
25.410000	-0.138105			
25.420000	-0.163622			
25.430000	-0.189138			
25.440000	-0.208531			
25.450000	-0.227413			
25.460000	-0.244254			
25.470000	-0.256502			
25.480000	-0.268240			
25.490000	-0.276915			
25.500000	-0.278446			
25.510000	-0.277425			
25.520000	-0.276405			
25.530000	-0.267219			
25.540000	-0.259054			
25.550000	-0.243744			
25.560000	-0.229454			
25.570000	-0.209041			
25.580000	-0.187097			
25.590000	-0.162601			
25.600000	-0.135554			
25.610000	-0.106975			
25.620000	-0.080438			
25.630000	-0.050329			
25.640000	-0.019709			
25.650000	0.011421			
25.660000	0.038979			
25.670000	0.068578			
25.680000	0.095115			
25.690000	0.120632			
25.700000	0.144617			
25.710000	0.165030			
25.720000	0.182892			
25.730000	0.199222			
25.740000	0.214022			
25.750000	0.225760			
25.760000	0.226780			
25.770000	0.229332			
25.780000	0.231373			
25.790000	0.227801			
25.800000	0.219636			
25.810000	0.205346			
25.820000	0.193609			
25.830000	0.177789			
25.840000	0.156865			
25.850000	0.135942			
25.860000	0.111446			
25.870000	0.086950			
25.880000	0.057351			
25.890000	0.028772			
25.900000	-0.001847			
25.910000	-0.031957			
25.920000	-0.062066			
25.930000	-0.087072			
25.940000	-0.114630			
25.950000	-0.141678			
25.960000	-0.164643			
25.970000	-0.189649			
25.980000	-0.209041			
25.990000	-0.225882			
26.000000	-0.240682			
26.010000	-0.250378			
26.020000	-0.262116			
26.030000	-0.263647			
26.040000	-0.265688			
26.050000	-0.264157			
26.060000	-0.257012			
26.070000	-0.249868			
26.080000	-0.235578			
26.090000	-0.223331			
26.100000	-0.202917			
26.110000	-0.179953			
26.120000	-0.159539			
26.130000	-0.134023			
26.140000	-0.108506			
26.150000	-0.079928			
26.160000	-0.053901			
26.170000	-0.019199			
26.180000	0.008869			
26.190000	0.033876			
26.200000	0.063475			
26.210000	0.091033			
26.220000	0.115528			
26.230000	0.141555			
26.240000	0.162479			
26.250000	0.182892			
26.260000	0.198712			
26.270000	0.210960			
26.280000	0.223208			
26.290000	0.231373			
26.300000	0.233925			
26.310000	0.235456			
26.320000	0.229842			
26.330000	0.222698			
26.340000	0.212491			
26.350000	0.201774			
26.360000	0.183913			
26.370000	0.165541			
26.380000	0.144107			
26.390000	0.120632			
26.400000	0.094605			
26.410000	0.069599			
26.420000	0.040000			
26.430000	0.011421			
26.440000	-0.017668			
26.450000	-0.047777			
26.460000	-0.074314			
26.470000	-0.103913			
26.480000	-0.131471			
26.490000	-0.155967			
26.500000	-0.177911			
26.510000	-0.201897			
26.520000	-0.219248			
26.530000	-0.234558			
26.540000	-0.246806			
26.550000	-0.257012			
26.560000	-0.261095			
26.570000	-0.264157			
26.580000	-0.264667			
26.590000	-0.259054			
26.600000	-0.252930			
26.610000	-0.245275			
26.620000	-0.228434			
26.630000	-0.211593			
26.640000	-0.193221			
26.650000	-0.171787			
26.660000	-0.147291			
26.670000	-0.121775			
26.680000	-0.093196			
26.690000	-0.068701			
26.700000	-0.039102			
26.710000	-0.008992			
26.720000	0.019076			
26.730000	0.046124			
26.740000	0.074192			
26.750000	0.099708			
26.760000	0.120121			
26.770000	0.147169			
26.780000	0.164010			
26.790000	0.180851			
26.800000	0.196160			
26.810000	0.207388			
26.820000	0.214022			
26.830000	0.219125			
26.840000	0.219125			
26.850000	0.219636			
26.860000	0.210450			
26.870000	0.205346			
26.880000	0.192078			
26.890000	0.177278			
26.900000	0.158396			
26.910000	0.138493			
26.920000	0.116549			
26.930000	0.089502			
26.940000	0.063985			
26.950000	0.037958			
26.960000	0.011931			
26.970000	-0.019709			
26.980000	-0.048798			
26.990000	-0.076866			
27.000000	-0.104934			
27.010000	-0.131471			
27.020000	-0.155967			
27.030000	-0.179442			
27.040000	-0.200876			
27.050000	-0.221289			
27.060000	-0.234047			
27.070000	-0.246806			
27.080000	-0.260074			
27.090000	-0.266198			
27.100000	-0.269260			
27.110000	-0.272322			
27.120000	-0.268750			
27.130000	-0.262116			
27.140000	-0.250888			
27.150000	-0.238130			
27.160000	-0.224862			
27.170000	-0.204959			
27.180000	-0.186587			
27.190000	-0.161581			
27.200000	-0.134533			
27.210000	-0.109527			
27.220000	-0.084521			
27.230000	-0.054922			
27.240000	-0.026343			
27.250000	0.004277			
27.260000	0.031324			
27.270000	0.058882			
27.280000	0.085929			
27.290000	0.108894			
27.300000	0.132880			
27.310000	0.153803			
27.320000	0.170134			
27.330000	0.185954			
27.340000	0.198712			
27.350000	0.207898			
27.360000	0.215043			
27.370000	0.216574			
27.380000	0.215553			
27.390000	0.210960			
27.400000	0.204326			
27.410000	0.192588			
27.420000	0.182382			
27.430000	0.165030			
27.440000	0.147169			
27.450000	0.124714			
27.460000	0.098177			
27.470000	0.075723			
27.480000	0.049186			
27.490000	0.024179			
27.500000	-0.006951			
27.510000	-0.036550			
27.520000	-0.063087			
27.530000	-0.090645			
27.540000	-0.118203			
27.550000	-0.143209			
27.560000	-0.164643			
27.570000	-0.188628			
27.580000	-0.205979			
27.590000	-0.223331			
27.600000	-0.237109			
27.610000	-0.248337			
27.620000	-0.253950			
27.630000	-0.260074			
27.640000	-0.262626			
27.650000	-0.262116			
27.660000	-0.251909			
27.670000	-0.242213			
27.680000	-0.235068			
27.690000	-0.219248			
27.700000	-0.202407			
27.710000	-0.180463			
27.720000	-0.160050			
27.730000	-0.134023			
27.740000	-0.109017			
27.750000	-0.081969			
27.760000	-0.053901			
27.770000	-0.027364			
27.780000	0.000194			
27.790000	0.029793			
27.800000	0.057351			
27.810000	0.083378			
27.820000	0.110935			
27.830000	0.130838			
27.840000	0.153293			
27.850000	0.172685			
27.860000	0.189016			
27.870000	0.202795			
27.880000	0.213512			
27.890000	0.219125			
27.900000	0.223208			
27.910000	0.226270			
27.920000	0.220656			
27.930000	0.215043			
27.940000	0.206877			
27.950000	0.196160			
27.960000	0.178809			
27.970000	0.159417			
27.980000	0.141045			
27.990000	0.117570			
28.000000	0.093584			
28.010000	0.069599			
28.020000	0.041020			
28.030000	0.011421			
28.040000	-0.015116			
28.050000	-0.040632			
28.060000	-0.070742			
28.070000	-0.099831			
28.080000	-0.123816			
28.090000	-0.146271			
28.100000	-0.167194			
28.110000	-0.190159			
28.120000	-0.207510			
28.130000	-0.222310			
28.140000	-0.234558			
28.150000	-0.243233			
28.160000	-0.249868			
28.170000	-0.251909			
28.180000	-0.253440			
28.190000	-0.247316			
28.200000	-0.240171			
28.210000	-0.232516			
28.220000	-0.217717			
28.230000	-0.199855			
28.240000	-0.181483			
28.250000	-0.161070			
28.260000	-0.139126			
28.270000	-0.113610			
28.280000	-0.089624			
28.290000	-0.061046			
28.300000	-0.035529			
28.310000	-0.006951			
28.320000	0.022138			
28.330000	0.048165			
28.340000	0.076233			
28.350000	0.101239			
28.360000	0.123694			
28.370000	0.143086			
28.380000	0.164520			
28.390000	0.178299			
28.400000	0.194119			
28.410000	0.204836			
28.420000	0.209429			
28.430000	0.217084			
28.440000	0.219125			
28.450000	0.215553			
28.460000	0.212491			
28.470000	0.201264			
28.480000	0.191568			
28.490000	0.176768			
28.500000	0.159417			
28.510000	0.142066			
28.520000	0.117570			
28.530000	0.093074			
28.540000	0.068578			
28.550000	0.044082			
28.560000	0.016014			
28.570000	-0.013075			
28.580000	-0.040122			
28.590000	-0.068190			
28.600000	-0.093196			
28.610000	-0.121265			
28.620000	-0.143719			
28.630000	-0.166684			
28.640000	-0.192200			
28.650000	-0.207510			
28.660000	-0.223841			
28.670000	-0.236599			
28.680000	-0.248337			
28.690000	-0.251399			
28.700000	-0.257523			
28.710000	-0.257523			
28.720000	-0.253950			
28.730000	-0.249868			
28.740000	-0.240682			
28.750000	-0.227923			
28.760000	-0.215165			
28.770000	-0.196283			
28.780000	-0.178422			
28.790000	-0.155967			
28.800000	-0.130961			
28.810000	-0.105955			
28.820000	-0.079928			
28.830000	-0.053391			
28.840000	-0.024812			
28.850000	0.001215			
28.860000	0.025200			
28.870000	0.052758			
28.880000	0.080826			
28.890000	0.103791			
28.900000	0.123183			
28.910000	0.142066			
28.920000	0.164010			
28.930000	0.175747			
28.940000	0.190037			
28.950000	0.197181			
28.960000	0.201774			
28.970000	0.205857			
28.980000	0.207898			
28.990000	0.201774			
29.000000	0.194629			
29.010000	0.183402			
29.020000	0.170644			
29.030000	0.155844			
29.040000	0.136962			
29.050000	0.117570			
29.060000	0.094605			
29.070000	0.071130			
29.080000	0.044082			
29.090000	0.018055			
29.100000	-0.010523			
29.110000	-0.037571			
29.120000	-0.064108			
29.130000	-0.090645			
29.140000	-0.117692			
29.150000	-0.140147			
29.160000	-0.164132			
29.170000	-0.185566			
29.180000	-0.203938			
29.190000	-0.219248			
29.200000	-0.232516			
29.210000	-0.244764			
29.220000	-0.252930			
29.230000	-0.258033			
29.240000	-0.258033			
29.250000	-0.255481			
29.260000	-0.251399			
29.270000	-0.245785			
29.280000	-0.233027			
29.290000	-0.219758			
29.300000	-0.201897			
29.310000	-0.180463			
29.320000	-0.161070			
29.330000	-0.140147			
29.340000	-0.113099			
29.350000	-0.089114			
29.360000	-0.064108			
29.370000	-0.032978			
29.380000	-0.006951			
29.390000	0.021628			
29.400000	0.050206			
29.410000	0.074702			
29.420000	0.096646			
29.430000	0.120121			
29.440000	0.142066			
29.450000	0.162479			
29.460000	0.173196			
29.470000	0.187485			
29.480000	0.199733			
29.490000	0.206367			
29.500000	0.206877			
29.510000	0.209429			
29.520000	0.207388			
29.530000	0.201774			
29.540000	0.195140			
29.550000	0.180851			
29.560000	0.167072			
29.570000	0.148189			
29.580000	0.131349			
29.590000	0.110425			
29.600000	0.086950			
29.610000	0.057861			
29.620000	0.034896			
29.630000	0.010400			
29.640000	-0.021750			
29.650000	-0.045225			
29.660000	-0.070232			
29.670000	-0.099320			
29.680000	-0.120754			
29.690000	-0.146271			
29.700000	-0.167705			
29.710000	-0.187607			
29.720000	-0.204448			
29.730000	-0.216186			
29.740000	-0.229454			
29.750000	-0.237620			
29.760000	-0.244254			
29.770000	-0.242723			
29.780000	-0.245785			
29.790000	-0.241702			
29.800000	-0.234558			
29.810000	-0.222820			
29.820000	-0.211083			
29.830000	-0.195262			
29.840000	-0.177911			
29.850000	-0.158519			
29.860000	-0.134533			
29.870000	-0.111568			
29.880000	-0.085542			
29.890000	-0.061046			
29.900000	-0.032978			
29.910000	-0.003889			
29.920000	0.019076			
29.930000	0.046634			
29.940000	0.072661			
29.950000	0.096136			
29.960000	0.121652			
29.970000	0.140024			
29.980000	0.158396			
29.990000	0.173706			
30.000000	0.187995			
30.010000	0.199222			
30.020000	0.207898			
30.030000	0.210450			
30.040000	0.214022			
30.050000	0.213512			
30.060000	0.207388			
30.070000	0.197691			
30.080000	0.189526			
30.090000	0.175747			
30.100000	0.158906			
30.110000	0.138493			
30.120000	0.120632			
30.130000	0.096646			
30.140000	0.072150			
30.150000	0.047655			
30.160000	0.020097			
30.170000	-0.006440			
30.180000	-0.032978			
30.190000	-0.058494			
30.200000	-0.086562			
30.210000	-0.110037			
30.220000	-0.135554			
30.230000	-0.154436			
30.240000	-0.176891			
30.250000	-0.193221			
30.260000	-0.209552			
30.270000	-0.220779			
30.280000	-0.234047			
30.290000	-0.237620			
30.300000	-0.242723			
30.310000	-0.243233			
30.320000	-0.242723			
30.330000	-0.235068			
30.340000	-0.227413			
30.350000	-0.218227			
30.360000	-0.200876			
30.370000	-0.187097			
30.380000	-0.166684			
30.390000	-0.145760			
30.400000	-0.124837			
30.410000	-0.100341			
30.420000	-0.072273			
30.430000	-0.047267			
30.440000	-0.020730			
30.450000	0.003256			
30.460000	0.030303			
30.470000	0.058371			
30.480000	0.081336			
30.490000	0.101239			
30.500000	0.124714			
30.510000	0.141045			
30.520000	0.159417			
30.530000	0.173706			
30.540000	0.185444			
30.550000	0.193099			
30.560000	0.198712			
30.570000	0.202284			
30.580000	0.198202			
30.590000	0.197181			
30.600000	0.187995			
30.610000	0.182382			
30.620000	0.168092			
30.630000	0.150231			
30.640000	0.133900			
30.650000	0.115018			
30.660000	0.093074			
30.670000	0.069088			
30.680000	0.043572			
30.690000	0.018055			
30.700000	-0.008992			
30.710000	-0.033488			
30.720000	-0.060025			
30.730000	-0.085542			
30.740000	-0.112079			
30.750000	-0.135554			
30.760000	-0.154946			
30.770000	-0.178932			
30.780000	-0.197304			
30.790000	-0.212103			
30.800000	-0.224862			
30.810000	-0.233537			
30.820000	-0.246295			
30.830000	-0.249357			
30.840000	-0.250378			
30.850000	-0.249357			
30.860000	-0.241192			
30.870000	-0.238640			
30.880000	-0.227413			
30.890000	-0.215165			
30.900000	-0.198835			
30.910000	-0.178422			
30.920000	-0.161070			
30.930000	-0.137595			
30.940000	-0.114630			
30.950000	-0.089624			
30.960000	-0.063087			
30.970000	-0.039102			
30.980000	-0.011544			
30.990000	0.013462			
31.000000	0.041531			
31.010000	0.066537			
31.020000	0.088991			
31.030000	0.108894			
31.040000	0.128797			
31.050000	0.149720			
31.060000	0.162989			
31.070000	0.173196			
31.080000	0.184423			
31.090000	0.191057			
31.100000	0.196671			
31.110000	0.194119			
31.120000	0.194629			
31.130000	0.187485			
31.140000	0.179830			
31.150000	0.171154			
31.160000	0.154824			
31.170000	0.136962			
31.180000	0.119101			
31.190000	0.100218			
31.200000	0.076743			
31.210000	0.053778			
31.220000	0.028262			
31.230000	0.002746			
31.240000	-0.023281			
31.250000	-0.049308			
31.260000	-0.072273			
31.270000	-0.100851			
31.280000	-0.122285			
31.290000	-0.143209			
31.300000	-0.167705			
31.310000	-0.187097			
31.320000	-0.200876			
31.330000	-0.213124			
31.340000	-0.225882			
31.350000	-0.233537			
31.360000	-0.240171			
31.370000	-0.242723			
31.380000	-0.242723			
31.390000	-0.237620			
31.400000	-0.230985			
31.410000	-0.222820			
31.420000	-0.209552			
31.430000	-0.194752			
31.440000	-0.177401			
31.450000	-0.158519			
31.460000	-0.139126			
31.470000	-0.113610			
31.480000	-0.088603			
31.490000	-0.063087			
31.500000	-0.035529			
31.510000	-0.012564			
31.520000	0.016014			
31.530000	0.039489			
31.540000	0.064495			
31.550000	0.088481			
31.560000	0.108384			
31.570000	0.129818			
31.580000	0.150231			
31.590000	0.163499			
31.600000	0.179320			
31.610000	0.188506			
31.620000	0.196671			
31.630000	0.201774			
31.640000	0.202795			
31.650000	0.203305			
31.660000	0.199222			
31.670000	0.192078			
31.680000	0.182382			
31.690000	0.168603			
31.700000	0.153293			
31.710000	0.135942			
31.720000	0.115018			
31.730000	0.094095			
31.740000	0.071640			
31.750000	0.046124			
31.760000	0.022138			
31.770000	-0.005930			
31.780000	-0.029916			
31.790000	-0.055432			
31.800000	-0.081969			
31.810000	-0.105955			
31.820000	-0.127389			
31.830000	-0.147802			
31.840000	-0.168215			
31.850000	-0.185566			
31.860000	-0.199855			
31.870000	-0.210062			
31.880000	-0.219248			
31.890000	-0.227923			
31.900000	-0.232006			
31.910000	-0.232516			
31.920000	-0.228434			
31.930000	-0.224351			
31.940000	-0.217717			
31.950000	-0.207000			
31.960000	-0.191180			
31.970000	-0.176380			
31.980000	-0.160050			
31.990000	-0.138105			
32.000000	-0.115141			
32.010000	-0.091665			
32.020000	-0.065639			
32.030000	-0.041653			
32.040000	-0.017668			
32.050000	0.007338			
32.060000	0.034386			
32.070000	0.059392			
32.080000	0.080316			
32.090000	0.101239			
32.100000	0.125735			
32.110000	0.139004			
32.120000	0.157375			
32.130000	0.172175			
32.140000	0.183913			
32.150000	0.190547			
32.160000	0.197181			
32.170000	0.198202			
32.180000	0.197181			
32.190000	0.194629			
32.200000	0.189016			
32.210000	0.178809			
32.220000	0.166561			
32.230000	0.151762			
32.240000	0.137473			
32.250000	0.115528			
32.260000	0.096646			
32.270000	0.071640			
32.280000	0.048675			
32.290000	0.024179			
32.300000	-0.002868			
32.310000	-0.028385			
32.320000	-0.053901			
32.330000	-0.077887			
32.340000	-0.100851			
32.350000	-0.121775			
32.360000	-0.149843			
32.370000	-0.166174			
32.380000	-0.183014			
32.390000	-0.201386			
32.400000	-0.211593			
32.410000	-0.223841			
32.420000	-0.230475			
32.430000	-0.237109			
32.440000	-0.238640			
32.450000	-0.237620			
32.460000	-0.229965			
32.470000	-0.226903			
32.480000	-0.216186			
32.490000	-0.202917			
32.500000	-0.189649			
32.510000	-0.171787			
32.520000	-0.153926			
32.530000	-0.130961			
32.540000	-0.108506			
32.550000	-0.085542			
32.560000	-0.059004			
32.570000	-0.036550			
32.580000	-0.011033			
32.590000	0.015504			
32.600000	0.041020			
32.610000	0.061433			
32.620000	0.082867			
32.630000	0.106342			
32.640000	0.124714			
32.650000	0.139514			
32.660000	0.153293			
32.670000	0.168092			
32.680000	0.175747			
32.690000	0.182382			
32.700000	0.184933			
32.710000	0.187995			
32.720000	0.185444			
32.730000	0.180851			
32.740000	0.170134			
32.750000	0.160437			
32.760000	0.149210			
32.770000	0.130328			
32.780000	0.114508			
32.790000	0.091033			
32.800000	0.072150			
32.810000	0.046634			
32.820000	0.024690			
32.830000	-0.001847			
32.840000	-0.023281			
32.850000	-0.051349			
32.860000	-0.077887			
32.870000	-0.099320			
32.880000	-0.121775			
32.890000	-0.145760			
32.900000	-0.163622			
32.910000	-0.181994			
32.920000	-0.198324			
32.930000	-0.212103			
32.940000	-0.223331			
32.950000	-0.229965			
32.960000	-0.234047			
32.970000	-0.238130			
32.980000	-0.237620			
32.990000	-0.236599			
33.000000	-0.229454			
33.010000	-0.220269			
33.020000	-0.207510			
33.030000	-0.195262			
33.040000	-0.176891			
33.050000	-0.158008			
33.060000	-0.138105			
33.070000	-0.117692			
33.080000	-0.092686			
33.090000	-0.068190			
33.100000	-0.041653			
33.110000	-0.020219			
33.120000	0.006318			
33.130000	0.032855			
33.140000	0.055309			
33.150000	0.078785			
33.160000	0.098688			
33.170000	0.117570			
33.180000	0.135942			
33.190000	0.152782			
33.200000	0.166561			
33.210000	0.172685			
33.220000	0.182382			
33.230000	0.189016			
33.240000	0.190037			
33.250000	0.190547			
33.260000	0.182892			
33.270000	0.180340			
33.280000	0.168092			
33.290000	0.158906			
33.300000	0.143597			
33.310000	0.124714			
33.320000	0.106342			
33.330000	0.085929			
33.340000	0.063475			
33.350000	0.037958			
33.360000	0.013462			
33.370000	-0.008482			
33.380000	-0.035019			
33.390000	-0.057473			
33.400000	-0.080949			
33.410000	-0.103403			
33.420000	-0.128409			
33.430000	-0.146781			
33.440000	-0.164643			
33.450000	-0.181994			
33.460000	-0.198835			
33.470000	-0.208531			
33.480000	-0.215165			
33.490000	-0.223841			
33.500000	-0.226903			
33.510000	-0.226393			
33.520000	-0.225372			
33.530000	-0.219758			
33.540000	-0.213124			
33.550000	-0.200876			
33.560000	-0.187607			
33.570000	-0.170767			
33.580000	-0.152905			
33.590000	-0.135554			
33.600000	-0.113610			
33.610000	-0.089624			
33.620000	-0.066659			
33.630000	-0.041143			
33.640000	-0.018688			
33.650000	0.009380			
33.660000	0.032855			
33.670000	0.055820			
33.680000	0.079295			
33.690000	0.099708			
33.700000	0.117570			
33.710000	0.139514			
33.720000	0.156355			
33.730000	0.168092			
33.740000	0.177789			
33.750000	0.186975			
33.760000	0.192078			
33.770000	0.195650			
33.780000	0.195140			
33.790000	0.190547			
33.800000	0.185954			
33.810000	0.175237			
33.820000	0.166561			
33.830000	0.151251			
33.840000	0.133390			
33.850000	0.116549			
33.860000	0.095115			
33.870000	0.072661			
33.880000	0.050206			
33.890000	0.027752			
33.900000	0.003256			
33.910000	-0.021240			
33.920000	-0.046246			
33.930000	-0.069721			
33.940000	-0.092176			
33.950000	-0.114120			
33.960000	-0.137595			
33.970000	-0.156477			
33.980000	-0.174339			
33.990000	-0.189649			
34.000000	-0.198324			
34.010000	-0.211083			
34.020000	-0.219758			
34.030000	-0.223841			
34.040000	-0.223841			
34.050000	-0.224351			
34.060000	-0.221289			
34.070000	-0.214145			
34.080000	-0.203428			
34.090000	-0.191180			
34.100000	-0.176891			
34.110000	-0.159539			
34.120000	-0.143719			
34.130000	-0.122796			
34.140000	-0.099320			
34.150000	-0.076866			
34.160000	-0.053901			
34.170000	-0.029916			
34.180000	-0.004399			
34.190000	0.019586			
34.200000	0.040510			
34.210000	0.065516			
34.220000	0.085419			
34.230000	0.105322			
34.240000	0.123183			
34.250000	0.141045			
34.260000	0.151251			
34.270000	0.164010			
34.280000	0.174216			
34.290000	0.179830			
34.300000	0.182382			
34.310000	0.180851			
34.320000	0.182382			
34.330000	0.176768			
34.340000	0.167582			
34.350000	0.155844			
34.360000	0.144617			
34.370000	0.128287			
34.380000	0.111446			
34.390000	0.090012			
34.400000	0.070109			
34.410000	0.046124			
34.420000	0.025710			
34.430000	0.003256			
34.440000	-0.023281			
34.450000	-0.046246			
34.460000	-0.069211			
34.470000	-0.093196			
34.480000	-0.115141			
34.490000	-0.138616			
34.500000	-0.156988			
34.510000	-0.178422			
34.520000	-0.190669			
34.530000	-0.202917			
34.540000	-0.214145			
34.550000	-0.224862			
34.560000	-0.225372			
34.570000	-0.230475			
34.580000	-0.232006			
34.590000	-0.229454			
34.600000	-0.221289			
34.610000	-0.213124			
34.620000	-0.203938			
34.630000	-0.189138			
34.640000	-0.174849			
34.650000	-0.156988			
34.660000	-0.136064			
34.670000	-0.112589			
34.680000	-0.093196			
34.690000	-0.070742			
34.700000	-0.045225			
34.710000	-0.019709			
34.720000	0.001215			
34.730000	0.024179			
34.740000	0.048675			
34.750000	0.071130			
34.760000	0.093074			
34.770000	0.110425			
34.780000	0.127266			
34.790000	0.141045			
34.800000	0.153803			
34.810000	0.162989			
34.820000	0.171154			
34.830000	0.174727			
34.840000	0.175747			
34.850000	0.176258			
34.860000	0.172175			
34.870000	0.164010			
34.880000	0.156865			
34.890000	0.145128			
34.900000	0.130838			
34.910000	0.115018			
34.920000	0.095115			
34.930000	0.074192			
34.940000	0.053268			
34.950000	0.031324			
34.960000	0.008359			
34.970000	-0.015626			
34.980000	-0.039612			
34.990000	-0.062577			
35.000000	-0.085542			
35.010000	-0.110037			
35.020000	-0.128409			
35.030000	-0.146781			
35.040000	-0.166174			
35.050000	-0.182504			
35.060000	-0.195262			
35.070000	-0.208021			
35.080000	-0.216696			
35.090000	-0.221289			
35.100000	-0.224351			
35.110000	-0.225372			
35.120000	-0.223331			
35.130000	-0.216696			
35.140000	-0.209041			
35.150000	-0.200366			
35.160000	-0.187607			
35.170000	-0.170767			
35.180000	-0.154946			
35.190000	-0.135043			
35.200000	-0.115141			
35.210000	-0.094217			
35.220000	-0.070742			
35.230000	-0.045736			
35.240000	-0.021750			
35.250000	0.002235			
35.260000	0.024179			
35.270000	0.049696			
35.280000	0.071130			
35.290000	0.090012			
35.300000	0.112466			
35.310000	0.127776			
35.320000	0.143597			
35.330000	0.157375			
35.340000	0.166561			
35.350000	0.174727			
35.360000	0.183913			
35.370000	0.185444			
35.380000	0.185444			
35.390000	0.179830			
35.400000	0.175747			
35.410000	0.169113			
35.420000	0.158906			
35.430000	0.143597			
35.440000	0.128287			
35.450000	0.111446			
35.460000	0.090522			
35.470000	0.072150			
35.480000	0.047144			
35.490000	0.027241			
35.500000	0.001725			
35.510000	-0.021750			
35.520000	-0.044205			
35.530000	-0.069211			
35.540000	-0.090645			
35.550000	-0.110037			
35.560000	-0.131471			
35.570000	-0.149333			
35.580000	-0.166174			
35.590000	-0.180463			
35.600000	-0.192711			
35.610000	-0.201386			
35.620000	-0.208021			
35.630000	-0.213124			
35.640000	-0.216186			
35.650000	-0.213634			
35.660000	-0.211083			
35.670000	-0.201386			
35.680000	-0.194752			
35.690000	-0.183014			
35.700000	-0.167194			
35.710000	-0.152905			
35.720000	-0.137085			
35.730000	-0.115141			
35.740000	-0.093707			
35.750000	-0.072783			
35.760000	-0.048287			
35.770000	-0.025323			
35.780000	-0.002868			
35.790000	0.020607			
35.800000	0.043572			
35.810000	0.066537			
35.820000	0.086440			
35.830000	0.104301			
35.840000	0.124204			
35.850000	0.139004			
35.860000	0.153803			
35.870000	0.161968			
35.880000	0.173706			
35.890000	0.176768			
35.900000	0.182892			
35.910000	0.185444			
35.920000	0.178809			
35.930000	0.173196			
35.940000	0.167582			
35.950000	0.157886			
35.960000	0.144617			
35.970000	0.128287			
35.980000	0.111956			
35.990000	0.094605			
36.000000	0.074702			
36.010000	0.050717			
36.020000	0.029793			
36.030000	0.007338			
36.040000	-0.015626			
36.050000	-0.038591			
36.060000	-0.063087			
36.070000	-0.088093			
36.080000	-0.106975			
36.090000	-0.127389			
36.100000	-0.147291			
36.110000	-0.164132			
36.120000	-0.178932			
36.130000	-0.192711			
36.140000	-0.201386			
36.150000	-0.211593			
36.160000	-0.215165			
36.170000	-0.218738			
36.180000	-0.218227			
36.190000	-0.214145			
36.200000	-0.212614			
36.210000	-0.204959			
36.220000	-0.193731			
36.230000	-0.178422			
36.240000	-0.165663			
36.250000	-0.148312			
36.260000	-0.130961			
36.270000	-0.111058			
36.280000	-0.087583			
36.290000	-0.064108			
36.300000	-0.042674			
36.310000	-0.019199			
36.320000	0.004277			
36.330000	0.026731			
36.340000	0.047655			
36.350000	0.067047			
36.360000	0.085929			
36.370000	0.105832			
36.380000	0.122673			
36.390000	0.133900			
36.400000	0.147679			
36.410000	0.156355			
36.420000	0.164010			
36.430000	0.169623			
36.440000	0.168603			
36.450000	0.167582			
36.460000	0.166561			
36.470000	0.157375			
36.480000	0.151251			
36.490000	0.137473			
36.500000	0.124714			
36.510000	0.109404			
36.520000	0.090522			
36.530000	0.070619			
36.540000	0.050717			
36.550000	0.027752			
36.560000	0.006828			
36.570000	-0.017668			
36.580000	-0.041653			
36.590000	-0.063597			
36.600000	-0.089114			
36.610000	-0.106975			
36.620000	-0.127389			
36.630000	-0.147802			
36.640000	-0.166174			
36.650000	-0.178932			
36.660000	-0.193221			
36.670000	-0.203938			
36.680000	-0.212103			
36.690000	-0.217717			
36.700000	-0.222820			
36.710000	-0.219248			
36.720000	-0.221289			
36.730000	-0.216696			
36.740000	-0.210572			
36.750000	-0.198324			
36.760000	-0.182504			
36.770000	-0.173829			
36.780000	-0.154946			
36.790000	-0.136574			
36.800000	-0.115651			
36.810000	-0.096258			
36.820000	-0.073804			
36.830000	-0.050839			
36.840000	-0.027364			
36.850000	-0.004909			
36.860000	0.020607			
36.870000	0.040000			
36.880000	0.060413			
36.890000	0.080826			
36.900000	0.102260			
36.910000	0.116039			
36.920000	0.130838			
36.930000	0.144617			
36.940000	0.155844			
36.950000	0.165030			
36.960000	0.167582			
36.970000	0.171154			
36.980000	0.170134			
36.990000	0.169113			
37.000000	0.162989			
37.010000	0.154313			
37.020000	0.144617			
37.030000	0.132369			
37.040000	0.118590			
37.050000	0.099708			
37.060000	0.079295			
37.070000	0.061944			
37.080000	0.041020			
37.090000	0.018566			
37.100000	-0.002868			
37.110000	-0.024302			
37.120000	-0.047777			
37.130000	-0.070742			
37.140000	-0.090645			
37.150000	-0.111568			
37.160000	-0.133002			
37.170000	-0.147802			
37.180000	-0.162091			
37.190000	-0.178932			
37.200000	-0.191180			
37.210000	-0.198835			
37.220000	-0.205469			
37.230000	-0.209041			
37.240000	-0.210062			
37.250000	-0.210572			
37.260000	-0.203938			
37.270000	-0.198324			
37.280000	-0.190159			
37.290000	-0.178422			
37.300000	-0.164643			
37.310000	-0.147291			
37.320000	-0.130961			
37.330000	-0.114120			
37.340000	-0.093707			
37.350000	-0.069211			
37.360000	-0.049818			
37.370000	-0.026343			
37.380000	-0.002868			
37.390000	0.019076			
37.400000	0.042041			
37.410000	0.061944			
37.420000	0.085929			
37.430000	0.102260			
37.440000	0.118590			
37.450000	0.135431			
37.460000	0.151251			
37.470000	0.158396			
37.480000	0.168092			
37.490000	0.174727			
37.500000	0.177789			
37.510000	0.175747			
37.520000	0.175747			
37.530000	0.170134			
37.540000	0.163499			
37.550000	0.155334			
37.560000	0.141555			
37.570000	0.128797			
37.580000	0.110425			
37.590000	0.093074			
37.600000	0.077764			
37.610000	0.053268			
37.620000	0.030814			
37.630000	0.010400			
37.640000	-0.011544			
37.650000	-0.036550			
37.660000	-0.057473			
37.670000	-0.077887			
37.680000	-0.100851			
37.690000	-0.118713			
37.700000	-0.136574			
37.710000	-0.156477			
37.720000	-0.169746			
37.730000	-0.182504			
37.740000	-0.191180			
37.750000	-0.197814			
37.760000	-0.207000			
37.770000	-0.206490			
37.780000	-0.205469			
37.790000	-0.202917			
37.800000	-0.199855			
37.810000	-0.191690			
37.820000	-0.180973			
37.830000	-0.168725			
37.840000	-0.152395			
37.850000	-0.136574			
37.860000	-0.119734			
37.870000	-0.101362			
37.880000	-0.078907			
37.890000	-0.056963			
37.900000	-0.036550			
37.910000	-0.015116			
37.920000	0.007849			
37.930000	0.031834			
37.940000	0.051737			
37.950000	0.071640			
37.960000	0.088991			
37.970000	0.105832			
37.980000	0.122673			
37.990000	0.136452			
38.000000	0.145638			
38.010000	0.156355			
38.020000	0.162989			
38.030000	0.168092			
38.040000	0.167582			
38.050000	0.166051			
38.060000	0.162479			
38.070000	0.158396			
38.080000	0.146658			
38.090000	0.134921			
38.100000	0.122163			
38.110000	0.107873			
38.120000	0.090522			
38.130000	0.071130			
38.140000	0.050206			
38.150000	0.030303			
38.160000	0.008359			
38.170000	-0.015116			
38.180000	-0.039102			
38.190000	-0.059515			
38.200000	-0.080438			
38.210000	-0.099831			
38.220000	-0.123816			
38.230000	-0.139636			
38.240000	-0.158519			
38.250000	-0.171787			
38.260000	-0.183014			
38.270000	-0.194752			
38.280000	-0.203428			
38.290000	-0.211593			
38.300000	-0.213634			
38.310000	-0.212103			
38.320000	-0.213634			
38.330000	-0.208021			
38.340000	-0.199345			
38.350000	-0.190669			
38.360000	-0.183014			
38.370000	-0.166684			
38.380000	-0.150864			
38.390000	-0.134533			
38.400000	-0.114120			
38.410000	-0.093707			
38.420000	-0.074825			
38.430000	-0.050839			
38.440000	-0.030426			
38.450000	-0.007461			
38.460000	0.012952			
38.470000	0.032345			
38.480000	0.055820			
38.490000	0.074702			
38.500000	0.091543			
38.510000	0.106342			
38.520000	0.123694			
38.530000	0.135431			
38.540000	0.147679			
38.550000	0.152782			
38.560000	0.159417			
38.570000	0.157886			
38.580000	0.160437			
38.590000	0.157375			
38.600000	0.151251			
38.610000	0.142066			
38.620000	0.135431			
38.630000	0.123694			
38.640000	0.106342			
38.650000	0.089502			
38.660000	0.073171			
38.670000	0.053268			
38.680000	0.033876			
38.690000	0.012952			
38.700000	-0.009502			
38.710000	-0.032467			
38.720000	-0.052370			
38.730000	-0.074314			
38.740000	-0.094727			
38.750000	-0.114630			
38.760000	-0.132492			
38.770000	-0.149333			
38.780000	-0.166174			
38.790000	-0.177911			
38.800000	-0.189138			
38.810000	-0.197304			
38.820000	-0.207000			
38.830000	-0.209552			
38.840000	-0.211083			
38.850000	-0.207510			
38.860000	-0.203428			
38.870000	-0.198324			
38.880000	-0.189138			
38.890000	-0.177911			
38.900000	-0.164132			
38.910000	-0.146271			
38.920000	-0.134533			
38.930000	-0.114120			
38.940000	-0.093707			
38.950000	-0.072273			
38.960000	-0.051860			
38.970000	-0.030936			
38.980000	-0.008482			
38.990000	0.015504			
39.000000	0.036427			
39.010000	0.057861			
39.020000	0.074702			
39.030000	0.095115			
39.040000	0.111446			
39.050000	0.125735			
39.060000	0.138493			
39.070000	0.148189			
39.080000	0.157375			
39.090000	0.165030			
39.100000	0.166561			
39.110000	0.164520			
39.120000	0.166051			
39.130000	0.164010			
39.140000	0.154313			
39.150000	0.144617			
39.160000	0.137473			
39.170000	0.118080			
39.180000	0.105832			
39.190000	0.088481			
39.200000	0.067557			
39.210000	0.048165			
39.220000	0.030303			
39.230000	0.007338			
39.240000	-0.015116			
39.250000	-0.035529			
39.260000	-0.058494			
39.270000	-0.076866			
39.280000	-0.097279			
39.290000	-0.116161			
39.300000	-0.135043			
39.310000	-0.150353			
39.320000	-0.163112			
39.330000	-0.174339			
39.340000	-0.184035			
39.350000	-0.192200			
39.360000	-0.196283			
39.370000	-0.198324			
39.380000	-0.196793			
39.390000	-0.196793			
39.400000	-0.189649			
39.410000	-0.184545			
39.420000	-0.172298			
39.430000	-0.161581			
39.440000	-0.147291			
39.450000	-0.129940			
39.460000	-0.111568			
39.470000	-0.093196			
39.480000	-0.072273			
39.490000	-0.053901			
39.500000	-0.031447			
39.510000	-0.006951			
39.520000	0.013462			
39.530000	0.031834			
39.540000	0.052248			
39.550000	0.073171			
39.560000	0.090012			
39.570000	0.106853			
39.580000	0.121652			
39.590000	0.136962			
39.600000	0.147169			
39.610000	0.154313			
39.620000	0.160948			
39.630000	0.164520			
39.640000	0.167072			
39.650000	0.165030			
39.660000	0.161458			
39.670000	0.156355			
39.680000	0.146148			
39.690000	0.136452			
39.700000	0.125225			
39.710000	0.109404			
39.720000	0.088991			
39.730000	0.073171			
39.740000	0.052248			
39.750000	0.033365			
39.760000	0.010400			
39.770000	-0.008992			
39.780000	-0.032467			
39.790000	-0.053391			
39.800000	-0.071252			
39.810000	-0.093707			
39.820000	-0.112589			
39.830000	-0.131471			
39.840000	-0.145250			
39.850000	-0.162091			
39.860000	-0.174849			
39.870000	-0.182504			
39.880000	-0.193221			
39.890000	-0.198835			
39.900000	-0.201386			
39.910000	-0.199855			
39.920000	-0.201386			
39.930000	-0.196283			
39.940000	-0.189649			
39.950000	-0.181483			
39.960000	-0.172298			
39.970000	-0.155967			
39.980000	-0.142188			
39.990000	-0.124837			
40.000000	-0.107486			
40.010000	-0.087072			
40.020000	-0.066149			
40.030000	-0.046756			
40.040000	-0.024812			
40.050000	-0.002868			
40.060000	0.014993			
40.070000	0.037958			
40.080000	0.057351			
40.090000	0.073681			
40.100000	0.090012			
40.110000	0.103280			
40.120000	0.121142			
40.130000	0.131859			
40.140000	0.140024			
40.150000	0.147679			
40.160000	0.153803			
40.170000	0.154824			
40.180000	0.154313			
40.190000	0.151251			
40.200000	0.146148			
40.210000	0.137983			
40.220000	0.128287			
40.230000	0.116549			
40.240000	0.100218			
40.250000	0.083888			
40.260000	0.070109			
40.270000	0.048165			
40.280000	0.028772			
40.290000	0.008359			
40.300000	-0.013585			
40.310000	-0.031957			
40.320000	-0.053901			
40.330000	-0.075335			
40.340000	-0.097789			
40.350000	-0.113099			
40.360000	-0.130961			
40.370000	-0.147802			
40.380000	-0.163112			
40.390000	-0.177401			
40.400000	-0.187097			
40.410000	-0.195262			
40.420000	-0.199345			
40.430000	-0.204448			
40.440000	-0.207000			
40.450000	-0.206490			
40.460000	-0.200366			
40.470000	-0.194752			
40.480000	-0.187607			
40.490000	-0.177911			
40.500000	-0.164643			
40.510000	-0.149333			
40.520000	-0.134023			
40.530000	-0.115141			
40.540000	-0.096258			
40.550000	-0.074314			
40.560000	-0.051860			
40.570000	-0.033998			
40.580000	-0.011544			
40.590000	0.006318			
40.600000	0.027241			
40.610000	0.050206			
40.620000	0.066537			
40.630000	0.083378			
40.640000	0.099708			
40.650000	0.115528			
40.660000	0.125735			
40.670000	0.138493			
40.680000	0.145638			
40.690000	0.151762			
40.700000	0.153293			
40.710000	0.155334			
40.720000	0.153293			
40.730000	0.147679			
40.740000	0.142066			
40.750000	0.133900			
40.760000	0.122163			
40.770000	0.108384			
40.780000	0.095115			
40.790000	0.077254			
40.800000	0.060413			
40.810000	0.039489			
40.820000	0.021117			
40.830000	0.000704			
40.840000	-0.020219			
40.850000	-0.041653			
40.860000	-0.063087			
40.870000	-0.082480			
40.880000	-0.099320			
40.890000	-0.117692			
40.900000	-0.133513			
40.910000	-0.149843			
40.920000	-0.165153			
40.930000	-0.172808			
40.940000	-0.181994			
40.950000	-0.190159			
40.960000	-0.194242			
40.970000	-0.196283			
40.980000	-0.195262			
40.990000	-0.190159			
41.000000	-0.188118			
41.010000	-0.178422			
41.020000	-0.170256			
41.030000	-0.157498			
41.040000	-0.141167			
41.050000	-0.126878			
41.060000	-0.111058			
41.070000	-0.091155			
41.080000	-0.072273			
41.090000	-0.051860			
41.100000	-0.031957			
41.110000	-0.009502			
41.120000	0.011421			
41.130000	0.030303			
41.140000	0.051737			
41.150000	0.069599			
41.160000	0.086950			
41.170000	0.102770			
41.180000	0.120121			
41.190000	0.130328			
41.200000	0.141555			
41.210000	0.151762			
41.220000	0.157886			
41.230000	0.161968			
41.240000	0.161458			
41.250000	0.160437			
41.260000	0.157375			
41.270000	0.150741			
41.280000	0.143597			
41.290000	0.133900			
41.300000	0.118080			
41.310000	0.106853			
41.320000	0.092053			
41.330000	0.072661			
41.340000	0.052758			
41.350000	0.032855			
41.360000	0.016524			
41.370000	-0.006440			
41.380000	-0.029405			
41.390000	-0.048798			
41.400000	-0.069721			
41.410000	-0.087072			
41.420000	-0.106465			
41.430000	-0.122796			
41.440000	-0.140657			
41.450000	-0.153926			
41.460000	-0.162601			
41.470000	-0.174339			
41.480000	-0.182504			
41.490000	-0.187607			
41.500000	-0.191180			
41.510000	-0.192711			
41.520000	-0.189649			
41.530000	-0.184035			
41.540000	-0.178422			
41.550000	-0.170256			
41.560000	-0.156477			
41.570000	-0.145760			
41.580000	-0.130961			
41.590000	-0.116672			
41.600000	-0.097279			
41.610000	-0.076866			
41.620000	-0.057984			
41.630000	-0.039612			
41.640000	-0.018688			
41.650000	0.001215			
41.660000	0.022648			
41.670000	0.042551			
41.680000	0.060413			
41.690000	0.075212			
41.700000	0.095115			
41.710000	0.110935			
41.720000	0.121142			
41.730000	0.131349			
41.740000	0.140535			
41.750000	0.149210			
41.760000	0.150741			
41.770000	0.155844			
41.780000	0.152272			
41.790000	0.150231			
41.800000	0.143086			
41.810000	0.136452			
41.820000	0.127776			
41.830000	0.114508			
41.840000	0.101749			
41.850000	0.085419			
41.860000	0.070619			
41.870000	0.047655			
41.880000	0.030303			
41.890000	0.012442			
41.900000	-0.009502			
41.910000	-0.027364			
41.920000	-0.051860			
41.930000	-0.071252			
41.940000	-0.091155			
41.950000	-0.107996			
41.960000	-0.125858			
41.970000	-0.143209			
41.980000	-0.156477			
41.990000	-0.168725			
42.000000	-0.177401			
42.010000	-0.188628			
42.020000	-0.193731			
42.030000	-0.196793			
42.040000	-0.198835			
42.050000	-0.197304			
42.060000	-0.194242			
42.070000	-0.190159			
42.080000	-0.180973			
42.090000	-0.171787			
42.100000	-0.158008			
42.110000	-0.146271			
42.120000	-0.127899			
42.130000	-0.111568			
42.140000	-0.092686			
42.150000	-0.072783			
42.160000	-0.056453			
42.170000	-0.035019			
42.180000	-0.016137			
42.190000	0.006828			
42.200000	0.027241			
42.210000	0.044082			
42.220000	0.060413			
42.230000	0.078785			
42.240000	0.093584			
42.250000	0.109404			
42.260000	0.118590			
42.270000	0.128797			
42.280000	0.137473			
42.290000	0.142066			
42.300000	0.145638			
42.310000	0.147169			
42.320000	0.142066			
42.330000	0.139514			
42.340000	0.131859			
42.350000	0.124204			
42.360000	0.112977			
42.370000	0.100729			
42.380000	0.084398			
42.390000	0.069599			
42.400000	0.053268			
42.410000	0.030814			
42.420000	0.013462			
42.430000	-0.006440			
42.440000	-0.026343			
42.450000	-0.043694			
42.460000	-0.068190			
42.470000	-0.084521			
42.480000	-0.103403			
42.490000	-0.119734			
42.500000	-0.136064			
42.510000	-0.149843			
42.520000	-0.162091			
42.530000	-0.174339			
42.540000	-0.182504			
42.550000	-0.188628			
42.560000	-0.192200			
42.570000	-0.195773			
42.580000	-0.195773			
42.590000	-0.190669			
42.600000	-0.184545			
42.610000	-0.178932			
42.620000	-0.169746			
42.630000	-0.156477			
42.640000	-0.144229			
42.650000	-0.130961			
42.660000	-0.111568			
42.670000	-0.096258			
42.680000	-0.074825			
42.690000	-0.054922			
42.700000	-0.035529			
42.710000	-0.013075			
42.720000	0.005297			
42.730000	0.025710			
42.740000	0.046634			
42.750000	0.063985			
42.760000	0.078274			
42.770000	0.097157			
42.780000	0.111446			
42.790000	0.123183			
42.800000	0.132880			
42.810000	0.140024			
42.820000	0.147679			
42.830000	0.152272			
42.840000	0.153803			
42.850000	0.151251			
42.860000	0.144107			
42.870000	0.141555			
42.880000	0.134921			
42.890000	0.124204			
42.900000	0.111446			
42.910000	0.099708			
42.920000	0.084398			
42.930000	0.066537			
42.940000	0.047655			
42.950000	0.028772			
42.960000	0.009380			
42.970000	-0.008992			
42.980000	-0.028895			
42.990000	-0.050329			
43.000000	-0.068190			
43.010000	-0.087072			
43.020000	-0.105955			
43.030000	-0.120754			
43.040000	-0.136064			
43.050000	-0.150864			
43.060000	-0.159539			
43.070000	-0.169236			
43.080000	-0.175360			
43.090000	-0.181994			
43.100000	-0.183014			
43.110000	-0.181994			
43.120000	-0.183014			
43.130000	-0.176380			
43.140000	-0.171787			
43.150000	-0.164643			
43.160000	-0.149843			
43.170000	-0.138105			
43.180000	-0.123816			
43.190000	-0.108506			
43.200000	-0.091155			
43.210000	-0.074314			
43.220000	-0.054922			
43.230000	-0.034509			
43.240000	-0.013585			
43.250000	0.005297			
43.260000	0.026221			
43.270000	0.044593			
43.280000	0.062454			
43.290000	0.078274			
43.300000	0.095115			
43.310000	0.109404			
43.320000	0.122163			
43.330000	0.131859			
43.340000	0.139514			
43.350000	0.145638			
43.360000	0.150741			
43.370000	0.154313			
43.380000	0.153803			
43.390000	0.149210			
43.400000	0.142576			
43.410000	0.135942			
43.420000	0.129818			
43.430000	0.113487			
43.440000	0.100729			
43.450000	0.087460			
43.460000	0.072661			
43.470000	0.051737			
43.480000	0.033876			
43.490000	0.015504			
43.500000	-0.004909			
43.510000	-0.022771			
43.520000	-0.044715			
43.530000	-0.065128			
43.540000	-0.082480			
43.550000	-0.102382			
43.560000	-0.114120			
43.570000	-0.131471			
43.580000	-0.146781			
43.590000	-0.158519			
43.600000	-0.169236			
43.610000	-0.175870			
43.620000	-0.182504			
43.630000	-0.185056			
43.640000	-0.190159			
43.650000	-0.185056			
43.660000	-0.184545			
43.670000	-0.178422			
43.680000	-0.170256			
43.690000	-0.161070			
43.700000	-0.146781			
43.710000	-0.134023			
43.720000	-0.118203			
43.730000	-0.103913			
43.740000	-0.087072			
43.750000	-0.066659			
43.760000	-0.049818			
43.770000	-0.027874			
43.780000	-0.008992			
43.790000	0.009890			
43.800000	0.029793			
43.810000	0.048165			
43.820000	0.061944			
43.830000	0.078274			
43.840000	0.095115			
43.850000	0.104811			
43.860000	0.117570			
43.870000	0.127266			
43.880000	0.131349			
43.890000	0.139514			
43.900000	0.140024			
43.910000	0.140535			
43.920000	0.137983			
43.930000	0.132880			
43.940000	0.128287			
43.950000	0.119101			
43.960000	0.106342			
43.970000	0.094095			
43.980000	0.081336			
43.990000	0.065006			
44.000000	0.047655			
44.010000	0.028772			
44.020000	0.010911			
44.030000	-0.007461			
44.040000	-0.026854			
44.050000	-0.045736			
44.060000	-0.067680			
44.070000	-0.085542			
44.080000	-0.102893			
44.090000	-0.118203			
44.100000	-0.135554			
44.110000	-0.150353			
44.120000	-0.161581			
44.130000	-0.172298			
44.140000	-0.180973			
44.150000	-0.188118			
44.160000	-0.190159			
44.170000	-0.193221			
44.180000	-0.191180			
44.190000	-0.188628			
44.200000	-0.183525			
44.210000	-0.178422			
44.220000	-0.166684			
44.230000	-0.154436			
44.240000	-0.143719			
44.250000	-0.129430			
44.260000	-0.112589			
44.270000	-0.094727			
44.280000	-0.076866			
44.290000	-0.056453			
44.300000	-0.037060			
44.310000	-0.018688			
44.320000	0.001215			
44.330000	0.022138			
44.340000	0.037448			
44.350000	0.056330			
44.360000	0.071130			
44.370000	0.089502			
44.380000	0.101239			
44.390000	0.114508			
44.400000	0.123694			
44.410000	0.131349			
44.420000	0.136452			
44.430000	0.139514			
44.440000	0.139514			
44.450000	0.140024			
44.460000	0.136452			
44.470000	0.129818			
44.480000	0.121652			
44.490000	0.111446			
44.500000	0.102260			
44.510000	0.087971			
44.520000	0.072150			
44.530000	0.054289			
44.540000	0.039489			
44.550000	0.020607			
44.560000	0.003256			
44.570000	-0.017157			
44.580000	-0.035529			
44.590000	-0.056453			
44.600000	-0.075335			
44.610000	-0.089624			
44.620000	-0.104934			
44.630000	-0.123816			
44.640000	-0.137085			
44.650000	-0.148312			
44.660000	-0.162091			
44.670000	-0.171277			
44.680000	-0.176380			
44.690000	-0.179953			
44.700000	-0.183525			
44.710000	-0.179953			
44.720000	-0.181994			
44.730000	-0.176380			
44.740000	-0.168725			
44.750000	-0.160560			
44.760000	-0.145250			
44.770000	-0.136574			
44.780000	-0.122285			
44.790000	-0.106975			
44.800000	-0.091155			
44.810000	-0.071763			
44.820000	-0.052880			
44.830000	-0.035529			
44.840000	-0.015626			
44.850000	0.005808			
44.860000	0.023669			
44.870000	0.040510			
44.880000	0.058882			
44.890000	0.076233			
44.900000	0.091543			
44.910000	0.105322			
44.920000	0.115528			
44.930000	0.129307			
44.940000	0.135942			
44.950000	0.143086			
44.960000	0.146148			
44.970000	0.147679			
44.980000	0.147679			
44.990000	0.145128			
45.000000	0.140535			
45.010000	0.132369			
45.020000	0.121652			
45.030000	0.112466			
45.040000	0.100729			
45.050000	0.082867			
45.060000	0.067047			
45.070000	0.050717			
45.080000	0.033365			
45.090000	0.015504			
45.100000	-0.003889			
45.110000	-0.024812			
45.120000	-0.042674			
45.130000	-0.060535			
45.140000	-0.078397			
45.150000	-0.093707			
45.160000	-0.111058			
45.170000	-0.127389			
45.180000	-0.138616			
45.190000	-0.149843			
45.200000	-0.162091			
45.210000	-0.168725			
45.220000	-0.172808			
45.230000	-0.175870			
45.240000	-0.177401			
45.250000	-0.176380			
45.260000	-0.172298			
45.270000	-0.167194			
45.280000	-0.159539			
45.290000	-0.149333			
45.300000	-0.138105			
45.310000	-0.123306			
45.320000	-0.109017			
45.330000	-0.093196			
45.340000	-0.076866			
45.350000	-0.059004			
45.360000	-0.041143			
45.370000	-0.022261			
45.380000	-0.002868			
45.390000	0.014993			
45.400000	0.033876			
45.410000	0.051737			
45.420000	0.068068			
45.430000	0.082867			
45.440000	0.094605			
45.450000	0.107873			
45.460000	0.119611			
45.470000	0.129307			
45.480000	0.133900			
45.490000	0.137983			
45.500000	0.142066			
45.510000	0.142576			
45.520000	0.139514			
45.530000	0.132369			
45.540000	0.125735			
45.550000	0.117570			
45.560000	0.108894			
45.570000	0.096136			
45.580000	0.080826			
45.590000	0.065006			
45.600000	0.048165			
45.610000	0.034896			
45.620000	0.013462			
45.630000	-0.007461			
45.640000	-0.024302			
45.650000	-0.043694			
45.660000	-0.062066			
45.670000	-0.078907			
45.680000	-0.096769			
45.690000	-0.115141			
45.700000	-0.129940			
45.710000	-0.142698			
45.720000	-0.153415			
45.730000	-0.166174			
45.740000	-0.172808			
45.750000	-0.177911			
45.760000	-0.183525			
45.770000	-0.184035			
45.780000	-0.183525			
45.790000	-0.180463			
45.800000	-0.175360			
45.810000	-0.171277			
45.820000	-0.160560			
45.830000	-0.149843			
45.840000	-0.137085			
45.850000	-0.121775			
45.860000	-0.107996			
45.870000	-0.091665			
45.880000	-0.072783			
45.890000	-0.053901			
45.900000	-0.037060			
45.910000	-0.019709			
45.920000	0.000194			
45.930000	0.019076			
45.940000	0.035407			
45.950000	0.051737			
45.960000	0.070109			
45.970000	0.081847			
45.980000	0.094095			
45.990000	0.107873			
46.000000	0.117570			
46.010000	0.121652			
46.020000	0.127776			
46.030000	0.131349			
46.040000	0.130838			
46.050000	0.127266			
46.060000	0.126245			
46.070000	0.119101			
46.080000	0.113487			
46.090000	0.101749			
46.100000	0.090012			
46.110000	0.081336			
46.120000	0.062454			
46.130000	0.047655			
46.140000	0.032345			
46.150000	0.012952			
46.160000	-0.006440			
46.170000	-0.021750			
46.180000	-0.041653			
46.190000	-0.059515			
46.200000	-0.078907			
46.210000	-0.094217			
46.220000	-0.112589			
46.230000	-0.125858			
46.240000	-0.139636			
46.250000	-0.151884			
46.260000	-0.164643			
46.270000	-0.171277			
46.280000	-0.175870			
46.290000	-0.181483			
46.300000	-0.183525			
46.310000	-0.182504			
46.320000	-0.180463			
46.330000	-0.176380			
46.340000	-0.170767			
46.350000	-0.160050			
46.360000	-0.149843			
46.370000	-0.138616			
46.380000	-0.122285			
46.390000	-0.109017			
46.400000	-0.091665			
46.410000	-0.075335			
46.420000	-0.054411			
46.430000	-0.036040			
46.440000	-0.020219			
46.450000	-0.000316			
46.460000	0.019586			
46.470000	0.035917			
46.480000	0.053778			
46.490000	0.069599			
46.500000	0.084398			
46.510000	0.098688			
46.520000	0.109915			
46.530000	0.118590			
46.540000	0.126756			
46.550000	0.131349			
46.560000	0.137983			
46.570000	0.139004			
46.580000	0.136452			
46.590000	0.133900			
46.600000	0.130328			
46.610000	0.122673			
46.620000	0.115528			
46.630000	0.103280			
46.640000	0.091033			
46.650000	0.076233			
46.660000	0.061944			
46.670000	0.046634			
46.680000	0.027241			
46.690000	0.010400			
46.700000	-0.007461			
46.710000	-0.027364			
46.720000	-0.043694			
46.730000	-0.063087			
46.740000	-0.077376			
46.750000	-0.093707			
46.760000	-0.112079			
46.770000	-0.125858			
46.780000	-0.137595			
46.790000	-0.147802			
46.800000	-0.154946			
46.810000	-0.160560			
46.820000	-0.169236			
46.830000	-0.172808			
46.840000	-0.171277			
46.850000	-0.169746			
46.860000	-0.166684			
46.870000	-0.163112			
46.880000	-0.152905			
46.890000	-0.142698			
46.900000	-0.131471			
46.910000	-0.120244			
46.920000	-0.104934			
46.930000	-0.088603			
46.940000	-0.073294			
46.950000	-0.054411			
46.960000	-0.035529			
46.970000	-0.018688			
46.980000	0.000704			
46.990000	0.020097			
47.000000	0.035407			
47.010000	0.053268			
47.020000	0.070619			
47.030000	0.084909			
47.040000	0.096646			
47.050000	0.110425			
47.060000	0.120121			
47.070000	0.126245			
47.080000	0.132880			
47.090000	0.137983			
47.100000	0.141555			
47.110000	0.136452			
47.120000	0.137983			
47.130000	0.133900			
47.140000	0.124714			
47.150000	0.117059			
47.160000	0.107363			
47.170000	0.095626			
47.180000	0.080826			
47.190000	0.065516			
47.200000	0.051227			
47.210000	0.030814			
47.220000	0.017035			
47.230000	-0.003378			
47.240000	-0.019199			
47.250000	-0.038591			
47.260000	-0.055942			
47.270000	-0.075845			
47.280000	-0.091155			
47.290000	-0.106975			
47.300000	-0.120754			
47.310000	-0.134023			
47.320000	-0.145250			
47.330000	-0.155967			
47.340000	-0.160560			
47.350000	-0.168215			
47.360000	-0.171277			
47.370000	-0.174339			
47.380000	-0.172298			
47.390000	-0.170256			
47.400000	-0.164643			
47.410000	-0.157498			
47.420000	-0.149333			
47.430000	-0.139636			
47.440000	-0.127389			
47.450000	-0.112589			
47.460000	-0.101362			
47.470000	-0.084521			
47.480000	-0.065128			
47.490000	-0.047777			
47.500000	-0.031447			
47.510000	-0.014095			
47.520000	0.007338			
47.530000	0.022138			
47.540000	0.040510			
47.550000	0.053778			
47.560000	0.070619			
47.570000	0.082867			
47.580000	0.095626			
47.590000	0.106853			
47.600000	0.116039			
47.610000	0.120121			
47.620000	0.124714			
47.630000	0.128797			
47.640000	0.127776			
47.650000	0.127266			
47.660000	0.127266			
47.670000	0.119101			
47.680000	0.110425			
47.690000	0.099198			
47.700000	0.088481			
47.710000	0.075212			
47.720000	0.062454			
47.730000	0.046124			
47.740000	0.027752			
47.750000	0.009890			
47.760000	-0.005420			
47.770000	-0.021750			
47.780000	-0.043694			
47.790000	-0.062066			
47.800000	-0.078907			
47.810000	-0.091665			
47.820000	-0.111058			
47.830000	-0.124837			
47.840000	-0.137085			
47.850000	-0.148822			
47.860000	-0.157498			
47.870000	-0.167705			
47.880000	-0.173829			
47.890000	-0.177911			
47.900000	-0.178422			
47.910000	-0.177401			
47.920000	-0.177911			
47.930000	-0.173829			
47.940000	-0.164643			
47.950000	-0.156477			
47.960000	-0.147802			
47.970000	-0.138105			
47.980000	-0.121775			
47.990000	-0.109527			
48.000000	-0.093707			
48.010000	-0.072273			
48.020000	-0.055942			
48.030000	-0.041653			
48.040000	-0.021240			
48.050000	-0.002868			
48.060000	0.012442			
48.070000	0.031324			
48.080000	0.047655			
48.090000	0.063985			
48.100000	0.076233			
48.110000	0.091543			
48.120000	0.100729			
48.130000	0.108384			
48.140000	0.117059			
48.150000	0.122673			
48.160000	0.123694			
48.170000	0.125735			
48.180000	0.125735			
48.190000	0.123694			
48.200000	0.118080			
48.210000	0.111956			
48.220000	0.102770			
48.230000	0.092053			
48.240000	0.078785			
48.250000	0.065516			
48.260000	0.049696			
48.270000	0.036427			
48.280000	0.019076			
48.290000	0.002746			
48.300000	-0.015116			
48.310000	-0.032467			
48.320000	-0.052880			
48.330000	-0.067170			
48.340000	-0.083500			
48.350000	-0.102893			
48.360000	-0.113610			
48.370000	-0.127899			
48.380000	-0.138616			
48.390000	-0.148312			
48.400000	-0.159029			
48.410000	-0.163622			
48.420000	-0.170767			
48.430000	-0.170256			
48.440000	-0.169746			
48.450000	-0.171277			
48.460000	-0.166174			
48.470000	-0.158008			
48.480000	-0.150864			
48.490000	-0.142188			
48.500000	-0.131471			
48.510000	-0.117182			
48.520000	-0.101872			
48.530000	-0.087072			
48.540000	-0.072273			
48.550000	-0.054922			
48.560000	-0.034509			
48.570000	-0.019709			
48.580000	0.000194			
48.590000	0.017035			
48.600000	0.030814			
48.610000	0.050717			
48.620000	0.066537			
48.630000	0.080826			
48.640000	0.092564			
48.650000	0.105322			
48.660000	0.112977			
48.670000	0.123694			
48.680000	0.128797			
48.690000	0.133390			
48.700000	0.134921			
48.710000	0.134921			
48.720000	0.131859			
48.730000	0.128287			
48.740000	0.121652			
48.750000	0.111956			
48.760000	0.104811			
48.770000	0.093584			
48.780000	0.077764			
48.790000	0.065006			
48.800000	0.049186			
48.810000	0.031834			
48.820000	0.013462			
48.830000	-0.002868			
48.840000	-0.020219			
48.850000	-0.037571			
48.860000	-0.051860			
48.870000	-0.072273			
48.880000	-0.089114			
48.890000	-0.102382			
48.900000	-0.115651			
48.910000	-0.128409			
48.920000	-0.140147			
48.930000	-0.149333			
48.940000	-0.154436			
48.950000	-0.160560			
48.960000	-0.163112			
48.970000	-0.165153			
48.980000	-0.163622			
48.990000	-0.161581			
49.000000	-0.154436			
49.010000	-0.146271			
49.020000	-0.141678			
49.030000	-0.130961			
49.040000	-0.115651			
49.050000	-0.101872			
49.060000	-0.088603			
49.070000	-0.074314			
49.080000	-0.057984			
49.090000	-0.039612			
49.100000	-0.023281			
49.110000	-0.002868			
49.120000	0.010911			
49.130000	0.026731			
49.140000	0.044082			
49.150000	0.060923			
49.160000	0.075212			
49.170000	0.085929			
49.180000	0.097157			
49.190000	0.108894			
49.200000	0.115528			
49.210000	0.122673			
49.220000	0.125225			
49.230000	0.129818			
49.240000	0.129307			
49.250000	0.128797			
49.260000	0.123694			
49.270000	0.117059			
49.280000	0.108894			
49.290000	0.099198			
49.300000	0.090012			
49.310000	0.074702			
49.320000	0.060413			
49.330000	0.046124			
49.340000	0.031324			
49.350000	0.013973			
49.360000	-0.002868			
49.370000	-0.023792			
49.380000	-0.040632			
49.390000	-0.057473			
49.400000	-0.072783			
49.410000	-0.090134			
49.420000	-0.106975			
49.430000	-0.120754			
49.440000	-0.129940			
49.450000	-0.141167			
49.460000	-0.154436			
49.470000	-0.160560			
49.480000	-0.166174			
49.490000	-0.167705			
49.500000	-0.169236			
49.510000	-0.173829			
49.520000	-0.167705			
49.530000	-0.163622			
49.540000	-0.158519			
49.550000	-0.148312			
49.560000	-0.142188			
49.570000	-0.130451			
49.580000	-0.116672			
49.590000	-0.101362			
49.600000	-0.087072			
49.610000	-0.073804			
49.620000	-0.052880			
49.630000	-0.035529			
49.640000	-0.019199			
49.650000	-0.004399			
49.660000	0.014993			
49.670000	0.029793			
49.680000	0.045103			
49.690000	0.061433			
49.700000	0.073171			
49.710000	0.086950			
49.720000	0.095115			
49.730000	0.105322			
49.740000	0.110935			
49.750000	0.115528			
49.760000	0.118080			
49.770000	0.120121			
49.780000	0.118080			
49.790000	0.115528			
49.800000	0.109404			
49.810000	0.101239			
49.820000	0.093074			
49.830000	0.083888			
49.840000	0.073171			
49.850000	0.058371			
49.860000	0.042041			
49.870000	0.029283			
49.880000	0.012952			
49.890000	-0.005420			
49.900000	-0.020219			
49.910000	-0.042163			
49.920000	-0.057473			
49.930000	-0.071763			
49.940000	-0.089624			
49.950000	-0.104934			
49.960000	-0.119734			
49.970000	-0.128409			
49.980000	-0.141167			
49.990000	-0.150864			
50.000000	-0.159539			
50.010000	-0.166174			
50.020000	-0.168215			
50.030000	-0.170256			
50.040000	-0.171277			
50.050000	-0.171277			
50.060000	-0.167194			
50.070000	-0.161581			
50.080000	-0.150864			
50.090000	-0.140657			
50.100000	-0.131982			
50.110000	-0.119734			
50.120000	-0.104424			
50.130000	-0.088093			
50.140000	-0.072783			
50.150000	-0.057473			
50.160000	-0.040632			
50.170000	-0.020730			
50.180000	-0.004909			
50.190000	0.010911			
50.200000	0.030814			
50.210000	0.047144			
50.220000	0.060923			
50.230000	0.074192			
50.240000	0.085419			
50.250000	0.098177			
50.260000	0.106342			
50.270000	0.115528			
50.280000	0.119611			
50.290000	0.123183			
50.300000	0.126756			
50.310000	0.123694			
50.320000	0.122673			
50.330000	0.119101			
50.340000	0.111446			
50.350000	0.102770			
50.360000	0.093074			
50.370000	0.084398			
50.380000	0.071130			
50.390000	0.053778			
50.400000	0.041531			
50.410000	0.025200			
50.420000	0.008359			
50.430000	-0.010013			
50.440000	-0.025833			
50.450000	-0.043184			
50.460000	-0.056963			
50.470000	-0.073804			
50.480000	-0.089624			
50.490000	-0.105955			
50.500000	-0.117182			
50.510000	-0.127389			
50.520000	-0.137085			
50.530000	-0.146271			
50.540000	-0.153415			
50.550000	-0.157498			
50.560000	-0.161070			
50.570000	-0.161070			
50.580000	-0.159539			
50.590000	-0.155967			
50.600000	-0.150353			
50.610000	-0.143209			
50.620000	-0.132492			
50.630000	-0.122796			
50.640000	-0.112589			
50.650000	-0.099831			
50.660000	-0.084521			
50.670000	-0.067170			
50.680000	-0.053391			
50.690000	-0.035019			
50.700000	-0.019199			
50.710000	-0.000827			
50.720000	0.014483			
50.730000	0.031324			
50.740000	0.046124			
50.750000	0.061944			
50.760000	0.077254			
50.770000	0.091033			
50.780000	0.098688			
50.790000	0.107363			
50.800000	0.117059			
50.810000	0.125735			
50.820000	0.128287			
50.830000	0.127776			
50.840000	0.128797			
50.850000	0.126756			
50.860000	0.122673			
50.870000	0.115528			
50.880000	0.110425			
50.890000	0.098177			
50.900000	0.088991			
50.910000	0.074192			
50.920000	0.061433			
50.930000	0.046634			
50.940000	0.031324			
50.950000	0.017035			
50.960000	-0.002358			
50.970000	-0.019199			
50.980000	-0.035529			
50.990000	-0.053901			
51.000000	-0.070232			
51.010000	-0.081459			
51.020000	-0.097279			
51.030000	-0.111568			
51.040000	-0.125858			
51.050000	-0.135043			
51.060000	-0.141167			
51.070000	-0.152395			
51.080000	-0.155457			
51.090000	-0.160050			
51.100000	-0.162601			
51.110000	-0.162091			
51.120000	-0.159029			
51.130000	-0.154436			
51.140000	-0.147802			
51.150000	-0.141167			
51.160000	-0.130961			
51.170000	-0.119223			
51.180000	-0.107996			
51.190000	-0.093707			
51.200000	-0.077887			
51.210000	-0.063087			
51.220000	-0.045736			
51.230000	-0.030936			
51.240000	-0.013585			
51.250000	0.002746			
51.260000	0.019586			
51.270000	0.033876			
51.280000	0.048675			
51.290000	0.063985			
51.300000	0.077764			
51.310000	0.086950			
51.320000	0.096646			
51.330000	0.104301			
51.340000	0.110935			
51.350000	0.115528			
51.360000	0.115018			
51.370000	0.120632			
51.380000	0.116549			
51.390000	0.112466			
51.400000	0.109915			
51.410000	0.098177			
51.420000	0.090522			
51.430000	0.080316			
51.440000	0.068068			
51.450000	0.057861			
51.460000	0.040000			
51.470000	0.025200			
51.480000	0.009890			
51.490000	-0.007461			
51.500000	-0.023281			
51.510000	-0.040122			
51.520000	-0.057984			
51.530000	-0.071763			
51.540000	-0.087072			
51.550000	-0.100851			
51.560000	-0.117692			
51.570000	-0.128409			
51.580000	-0.138105			
51.590000	-0.148312			
51.600000	-0.156988			
51.610000	-0.164132			
51.620000	-0.166684			
51.630000	-0.168215			
51.640000	-0.168725			
51.650000	-0.164132			
51.660000	-0.162601			
51.670000	-0.157498			
51.680000	-0.147802			
51.690000	-0.139636			
51.700000	-0.127389			
51.710000	-0.116161			
51.720000	-0.103403			
51.730000	-0.087583			
51.740000	-0.072783			
51.750000	-0.055942			
51.760000	-0.039612			
51.770000	-0.023281			
51.780000	-0.006951			
51.790000	0.010400			
51.800000	0.026221			
51.810000	0.041531			
51.820000	0.051737			
51.830000	0.067047			
51.840000	0.080826			
51.850000	0.091033			
51.860000	0.099198			
51.870000	0.106342			
51.880000	0.109404			
51.890000	0.114508			
51.900000	0.115528			
51.910000	0.116039			
51.920000	0.111956			
51.930000	0.107363			
51.940000	0.103280			
51.950000	0.095115			
51.960000	0.082357			
51.970000	0.070619			
51.980000	0.060413			
51.990000	0.046634			
52.000000	0.028772			
52.010000	0.014483			
52.020000	0.000704			
52.030000	-0.016647			
52.040000	-0.033488			
52.050000	-0.050329			
52.060000	-0.064618			
52.070000	-0.082480			
52.080000	-0.093707			
52.090000	-0.107486			
52.100000	-0.122285			
52.110000	-0.134533			
52.120000	-0.141678			
52.130000	-0.147802			
52.140000	-0.152395			
52.150000	-0.160050			
52.160000	-0.161070			
52.170000	-0.161581			
52.180000	-0.160050			
52.190000	-0.154436			
52.200000	-0.151884			
52.210000	-0.145250			
52.220000	-0.133002			
52.230000	-0.123306			
52.240000	-0.111058			
52.250000	-0.100341			
52.260000	-0.082990			
52.270000	-0.069211			
52.280000	-0.053391			
52.290000	-0.038081			
52.300000	-0.019199			
52.310000	-0.005420			
52.320000	0.011421			
52.330000	0.029793			
52.340000	0.044593			
52.350000	0.057351			
52.360000	0.072661			
52.370000	0.083378			
52.380000	0.095115			
52.390000	0.104301			
52.400000	0.111956			
52.410000	0.115018			
52.420000	0.120632			
52.430000	0.124204			
52.440000	0.122163			
52.450000	0.120632			
52.460000	0.116039			
52.470000	0.111956			
52.480000	0.104301			
52.490000	0.093074			
52.500000	0.083378			
52.510000	0.070109			
52.520000	0.058882			
52.530000	0.045103			
52.540000	0.027752			
52.550000	0.013462			
52.560000	-0.002868			
52.570000	-0.018178			
52.580000	-0.035019			
52.590000	-0.051860			
52.600000	-0.068701			
52.610000	-0.082990			
52.620000	-0.096258			
52.630000	-0.106975			
52.640000	-0.121775			
52.650000	-0.129940			
52.660000	-0.137595			
52.670000	-0.145760			
52.680000	-0.150353			
52.690000	-0.152395			
52.700000	-0.153415			
52.710000	-0.152905			
52.720000	-0.151884			
52.730000	-0.145760			
52.740000	-0.139636			
52.750000	-0.133002			
52.760000	-0.122285			
52.770000	-0.110548			
52.780000	-0.097789			
52.790000	-0.086052			
52.800000	-0.070742			
52.810000	-0.053901			
52.820000	-0.039612			
52.830000	-0.022771			
52.840000	-0.006440			
52.850000	0.009380			
52.860000	0.024690			
52.870000	0.041531			
52.880000	0.055309			
52.890000	0.067557			
52.900000	0.078785			
52.910000	0.091543			
52.920000	0.100729			
52.930000	0.106853			
52.940000	0.113487			
52.950000	0.118590			
52.960000	0.119101			
52.970000	0.118080			
52.980000	0.117570			
52.990000	0.115528			
53.000000	0.109404			
53.010000	0.102260			
53.020000	0.093074			
53.030000	0.081847			
53.040000	0.069088			
53.050000	0.058371			
53.060000	0.046124			
53.070000	0.027241			
53.080000	0.011421			
53.090000	-0.003889			
53.100000	-0.020219			
53.110000	-0.035529			
53.120000	-0.052370			
53.130000	-0.069211			
53.140000	-0.085542			
53.150000	-0.098300			
53.160000	-0.106975			
53.170000	-0.121775			
53.180000	-0.134023			
53.190000	-0.142188			
53.200000	-0.147291			
53.210000	-0.152395			
53.220000	-0.160560			
53.230000	-0.160560			
53.240000	-0.160560			
53.250000	-0.158008			
53.260000	-0.152395			
53.270000	-0.148822			
53.280000	-0.141167			
53.290000	-0.133513			
53.300000	-0.121265			
53.310000	-0.107486			
53.320000	-0.097279			
53.330000	-0.082480			
53.340000	-0.067170			
53.350000	-0.051349			
53.360000	-0.037060			
53.370000	-0.019199			
53.380000	-0.003378			
53.390000	0.009380			
53.400000	0.027241			
53.410000	0.039489			
53.420000	0.052758			
53.430000	0.066537			
53.440000	0.078274			
53.450000	0.088481			
53.460000	0.098177			
53.470000	0.099708			
53.480000	0.105322			
53.490000	0.109915			
53.500000	0.108894			
53.510000	0.108384			
53.520000	0.106853			
53.530000	0.101749			
53.540000	0.094095			
53.550000	0.086950			
53.560000	0.077764			
53.570000	0.066537			
53.580000	0.052248			
53.590000	0.041020			
53.600000	0.023669			
53.610000	0.012952			
53.620000	-0.006440			
53.630000	-0.022261			
53.640000	-0.037060			
53.650000	-0.054411			
53.660000	-0.067680			
53.670000	-0.082990			
53.680000	-0.098810			
53.690000	-0.111058			
53.700000	-0.123816			
53.710000	-0.133002			
53.720000	-0.143719			
53.730000	-0.149843			
53.740000	-0.154946			
53.750000	-0.159539			
53.760000	-0.165153			
53.770000	-0.162091			
53.780000	-0.160560			
53.790000	-0.154946			
53.800000	-0.152395			
53.810000	-0.144229			
53.820000	-0.136574			
53.830000	-0.125347			
53.840000	-0.111058			
53.850000	-0.096769			
53.860000	-0.088093			
53.870000	-0.073294			
53.880000	-0.054922			
53.890000	-0.038081			
53.900000	-0.023281			
53.910000	-0.006951			
53.920000	0.009890			
53.930000	0.024690			
53.940000	0.037958			
53.950000	0.052248			
53.960000	0.067557			
53.970000	0.078785			
53.980000	0.087460			
53.990000	0.097157			
54.000000	0.103280			
54.010000	0.106853			
54.020000	0.112466			
54.030000	0.115528			
54.040000	0.115528			
54.050000	0.110425			
54.060000	0.110935			
54.070000	0.102770			
54.080000	0.093584			
54.090000	0.086950			
54.100000	0.076233			
54.110000	0.061944			
54.120000	0.051227			
54.130000	0.037448			
54.140000	0.022648			
54.150000	0.006828			
54.160000	-0.007461			
54.170000	-0.023792			
54.180000	-0.041143			
54.190000	-0.056453			
54.200000	-0.071252			
54.210000	-0.084521			
54.220000	-0.099320			
54.230000	-0.110037			
54.240000	-0.120754			
54.250000	-0.132492			
54.260000	-0.138105			
54.270000	-0.144229			
54.280000	-0.147802			
54.290000	-0.147802			
54.300000	-0.152395			
54.310000	-0.148312			
54.320000	-0.146781			
54.330000	-0.142188			
54.340000	-0.134533			
54.350000	-0.127899			
54.360000	-0.115141			
54.370000	-0.106465			
54.380000	-0.093196			
54.390000	-0.078907			
54.400000	-0.065128			
54.410000	-0.053391			
54.420000	-0.035529			
54.430000	-0.018178			
54.440000	-0.003889			
54.450000	0.011931			
54.460000	0.029793			
54.470000	0.042551			
54.480000	0.056840			
54.490000	0.070109			
54.500000	0.080316			
54.510000	0.088481			
54.520000	0.100218			
54.530000	0.107873			
54.540000	0.111956			
54.550000	0.115528			
54.560000	0.117570			
54.570000	0.120121			
54.580000	0.117059			
54.590000	0.112466			
54.600000	0.106853			
54.610000	0.102260			
54.620000	0.092053			
54.630000	0.081847			
54.640000	0.071130			
54.650000	0.056330			
54.660000	0.042041			
54.670000	0.027752			
54.680000	0.014483			
54.690000	-0.001847			
54.700000	-0.019709			
54.710000	-0.035529			
54.720000	-0.051860			
54.730000	-0.064618			
54.740000	-0.077887			
54.750000	-0.091665			
54.760000	-0.102893			
54.770000	-0.117182			
54.780000	-0.125347			
54.790000	-0.133002			
54.800000	-0.141167			
54.810000	-0.145250			
54.820000	-0.149843			
54.830000	-0.150353			
54.840000	-0.150353			
54.850000	-0.147291			
54.860000	-0.142188			
54.870000	-0.138616			
54.880000	-0.128920			
54.890000	-0.122285			
54.900000	-0.111058			
54.910000	-0.100341			
54.920000	-0.088093			
54.930000	-0.071763			
54.940000	-0.060535			
54.950000	-0.043694			
54.960000	-0.029405			
54.970000	-0.011033			
54.980000	0.001725			
54.990000	0.018055			
55.000000	0.032855			
55.010000	0.046124			
55.020000	0.059902			
55.030000	0.070619			
55.040000	0.080316			
55.050000	0.090012			
55.060000	0.095115			
55.070000	0.102770			
55.080000	0.106342			
55.090000	0.108384			
55.100000	0.109915			
55.110000	0.106342			
55.120000	0.104301			
55.130000	0.100218			
55.140000	0.091543			
55.150000	0.082867			
55.160000	0.074192			
55.170000	0.067557			
55.180000	0.052248			
55.190000	0.037448			
55.200000	0.021117			
55.210000	0.007338			
55.220000	-0.004909			
55.230000	-0.022771			
55.240000	-0.039612			
55.250000	-0.053901			
55.260000	-0.070742			
55.270000	-0.084521			
55.280000	-0.095748			
55.290000	-0.109017			
55.300000	-0.123306			
55.310000	-0.129430			
55.320000	-0.139126			
55.330000	-0.145760			
55.340000	-0.153926			
55.350000	-0.154946			
55.360000	-0.157498			
55.370000	-0.158519			
55.380000	-0.155967			
55.390000	-0.152395			
55.400000	-0.145250			
55.410000	-0.140147			
55.420000	-0.131982			
55.430000	-0.120244			
55.440000	-0.111058			
55.450000	-0.097279			
55.460000	-0.081969			
55.470000	-0.070232			
55.480000	-0.054922			
55.490000	-0.041143			
55.500000	-0.024302			
55.510000	-0.006951			
55.520000	0.008869			
55.530000	0.022648			
55.540000	0.036938			
55.550000	0.049696			
55.560000	0.061433			
55.570000	0.072150			
55.580000	0.082867			
55.590000	0.091543			
55.600000	0.096136			
55.610000	0.101239			
55.620000	0.103280			
55.630000	0.106342			
55.640000	0.102770			
55.650000	0.100729			
55.660000	0.096136			
55.670000	0.092564			
55.680000	0.086440			
55.690000	0.075212			
55.700000	0.064495			
55.710000	0.052248			
55.720000	0.040510			
55.730000	0.026731			
55.740000	0.010911			
55.750000	-0.002358			
55.760000	-0.016647			
55.770000	-0.031957			
55.780000	-0.047267			
55.790000	-0.063087			
55.800000	-0.078907			
55.810000	-0.089624			
55.820000	-0.103403			
55.830000	-0.115141			
55.840000	-0.125347			
55.850000	-0.131982			
55.860000	-0.137595			
55.870000	-0.145250			
55.880000	-0.152395			
55.890000	-0.151884			
55.900000	-0.152395			
55.910000	-0.148822			
55.920000	-0.146271			
55.930000	-0.142698			
55.940000	-0.139636			
55.950000	-0.128920			
55.960000	-0.118203			
55.970000	-0.106465			
55.980000	-0.095748			
55.990000	-0.081459			
56.000000	-0.067170			
56.010000	-0.049818			
56.020000	-0.033998			
56.030000	-0.019709			
56.040000	-0.002868			
56.050000	0.010911			
56.060000	0.025710			
56.070000	0.041020			
56.080000	0.054289			
56.090000	0.065006			
56.100000	0.075212			
56.110000	0.088991			
56.120000	0.093584			
56.130000	0.102260			
56.140000	0.108384			
56.150000	0.113487			
56.160000	0.111446			
56.170000	0.112466			
56.180000	0.110935			
56.190000	0.106853			
56.200000	0.103280			
56.210000	0.094605			
56.220000	0.086950			
56.230000	0.075723			
56.240000	0.065516			
56.250000	0.053268			
56.260000	0.041531			
56.270000	0.023669			
56.280000	0.010400			
56.290000	-0.004399			
56.300000	-0.021240			
56.310000	-0.034509			
56.320000	-0.050839			
56.330000	-0.064108			
56.340000	-0.078397			
56.350000	-0.092686			
56.360000	-0.103403			
56.370000	-0.114120			
56.380000	-0.123816			
56.390000	-0.130961			
56.400000	-0.136574			
56.410000	-0.142698			
56.420000	-0.142698			
56.430000	-0.143719			
56.440000	-0.143209			
56.450000	-0.141167			
56.460000	-0.135554			
56.470000	-0.130451			
56.480000	-0.123816			
56.490000	-0.113610			
56.500000	-0.102382			
56.510000	-0.090645			
56.520000	-0.079928			
56.530000	-0.066659			
56.540000	-0.051349			
56.550000	-0.033488			
56.560000	-0.019199			
56.570000	-0.004399			
56.580000	0.008869			
56.590000	0.023159			
56.600000	0.037448			
56.610000	0.051737			
56.620000	0.062454			
56.630000	0.074192			
56.640000	0.084398			
56.650000	0.092564			
56.660000	0.101239			
56.670000	0.102770			
56.680000	0.108894			
56.690000	0.110425			
56.700000	0.111956			
56.710000	0.108894			
56.720000	0.105322			
56.730000	0.100729			
56.740000	0.092564			
56.750000	0.085419			
56.760000	0.075723			
56.770000	0.064495			
56.780000	0.052758			
56.790000	0.040000			
56.800000	0.025200			
56.810000	0.007849			
56.820000	-0.007971			
56.830000	-0.020219			
56.840000	-0.033488			
56.850000	-0.051349			
56.860000	-0.064108			
56.870000	-0.078907			
56.880000	-0.092686			
56.890000	-0.103403			
56.900000	-0.114120			
56.910000	-0.124327			
56.920000	-0.133002			
56.930000	-0.139126			
56.940000	-0.144229			
56.950000	-0.148312			
56.960000	-0.150864			
56.970000	-0.150353			
56.980000	-0.147802			
56.990000	-0.142188			
57.000000	-0.138616			
57.010000	-0.130451			
57.020000	-0.123816			
57.030000	-0.115141			
57.040000	-0.100851			
57.050000	-0.090645			
57.060000	-0.078907			
57.070000	-0.064618			
57.080000	-0.047267			
57.090000	-0.032467			
57.100000	-0.022771			
57.110000	-0.004909			
57.120000	0.010400			
57.130000	0.023669			
57.140000	0.038469			
57.150000	0.048165			
57.160000	0.062454			
57.170000	0.070109			
57.180000	0.080826			
57.190000	0.088991			
57.200000	0.093584			
57.210000	0.096646			
57.220000	0.100729			
57.230000	0.100729			
57.240000	0.102260			
57.250000	0.096136			
57.260000	0.094095			
57.270000	0.084909			
57.280000	0.078785			
57.290000	0.070619			
57.300000	0.059902			
57.310000	0.046634			
57.320000	0.032855			
57.330000	0.021628			
57.340000	0.007849			
57.350000	-0.007971			
57.360000	-0.022771			
57.370000	-0.039612			
57.380000	-0.052880			
57.390000	-0.065128			
57.400000	-0.082480			
57.410000	-0.095238			
57.420000	-0.103403			
57.430000	-0.115651			
57.440000	-0.126368			
57.450000	-0.136064			
57.460000	-0.143719			
57.470000	-0.145760			
57.480000	-0.150353			
57.490000	-0.151884			
57.500000	-0.151884			
57.510000	-0.152905			
57.520000	-0.147291			
57.530000	-0.142188			
57.540000	-0.135043			
57.550000	-0.126368			
57.560000	-0.117692			
57.570000	-0.104934			
57.580000	-0.094217			
57.590000	-0.080438			
57.600000	-0.068190			
57.610000	-0.051860			
57.620000	-0.036550			
57.630000	-0.023792			
57.640000	-0.006951			
57.650000	0.005808			
57.660000	0.022138			
57.670000	0.034896			
57.680000	0.049696			
57.690000	0.060923			
57.700000	0.069088			
57.710000	0.080316			
57.720000	0.087971			
57.730000	0.095115			
57.740000	0.099198			
57.750000	0.100729			
57.760000	0.105322			
57.770000	0.104301			
57.780000	0.100218			
57.790000	0.099708			
57.800000	0.091033			
57.810000	0.084398			
57.820000	0.075723			
57.830000	0.067557			
57.840000	0.058882			
57.850000	0.042551			
57.860000	0.029283			
57.870000	0.019076			
57.880000	0.003766			
57.890000	-0.012054			
57.900000	-0.027874			
57.910000	-0.040122			
57.920000	-0.054922			
57.930000	-0.068701			
57.940000	-0.080438			
57.950000	-0.095238			
57.960000	-0.109017			
57.970000	-0.114630			
57.980000	-0.121775			
57.990000	-0.129940			
58.000000	-0.136574			
58.010000	-0.139636			
58.020000	-0.144229			
58.030000	-0.143209			
58.040000	-0.140147			
58.050000	-0.138105			
58.060000	-0.135554			
58.070000	-0.128409			
58.080000	-0.120244			
58.090000	-0.110037			
58.100000	-0.101362			
58.110000	-0.089114			
58.120000	-0.072783			
58.130000	-0.062577			
58.140000	-0.047267			
58.150000	-0.030936			
58.160000	-0.017157			
58.170000	-0.003889			
58.180000	0.012442			
58.190000	0.027241			
58.200000	0.038469			
58.210000	0.050717			
58.220000	0.063985			
58.230000	0.076743			
58.240000	0.086440			
58.250000	0.091033			
58.260000	0.099198			
58.270000	0.102770			
58.280000	0.106853			
58.290000	0.110935			
58.300000	0.109404			
58.310000	0.108384			
58.320000	0.104301			
58.330000	0.099708			
58.340000	0.090522			
58.350000	0.083888			
58.360000	0.073681			
58.370000	0.063475			
58.380000	0.052758			
58.390000	0.038469			
58.400000	0.024690			
58.410000	0.009890			
58.420000	-0.004399			
58.430000	-0.017157			
58.440000	-0.032467			
58.450000	-0.048287			
58.460000	-0.061556			
58.470000	-0.076356			
58.480000	-0.088093			
58.490000	-0.098300			
58.500000	-0.110037			
58.510000	-0.116672			
58.520000	-0.127389			
58.530000	-0.131982			
58.540000	-0.136064			
58.550000	-0.141167			
58.560000	-0.142188			
58.570000	-0.142188			
58.580000	-0.139636			
58.590000	-0.136064			
58.600000	-0.128920			
58.610000	-0.123816			
58.620000	-0.114630			
58.630000	-0.104424			
58.640000	-0.091155			
58.650000	-0.079418			
58.660000	-0.069211			
58.670000	-0.054922			
58.680000	-0.039612			
58.690000	-0.024302			
58.700000	-0.011544			
58.710000	0.002746			
58.720000	0.016014			
58.730000	0.030814			
58.740000	0.043572			
58.750000	0.056840			
58.760000	0.068068			
58.770000	0.073171			
58.780000	0.083378			
58.790000	0.091543			
58.800000	0.097667			
58.810000	0.099198			
58.820000	0.099708			
58.830000	0.101239			
58.840000	0.102770			
58.850000	0.098177			
58.860000	0.093074			
58.870000	0.086950			
58.880000	0.077764			
58.890000	0.070109			
58.900000	0.059902			
58.910000	0.046124			
58.920000	0.032855			
58.930000	0.021117			
58.940000	0.006828			
58.950000	-0.008992			
58.960000	-0.023792			
58.970000	-0.036550			
58.980000	-0.051860			
58.990000	-0.065639			
59.000000	-0.080438			
59.010000	-0.095238			
59.020000	-0.104934			
59.030000	-0.115141			
59.040000	-0.123816			
59.050000	-0.131982			
59.060000	-0.139126			
59.070000	-0.144229			
59.080000	-0.146781			
59.090000	-0.149843			
59.100000	-0.148822			
59.110000	-0.145760			
59.120000	-0.142698			
59.130000	-0.138105			
59.140000	-0.131982			
59.150000	-0.122285			
59.160000	-0.114630			
59.170000	-0.103913			
59.180000	-0.090645			
59.190000	-0.078907			
59.200000	-0.066659			
59.210000	-0.052880			
59.220000	-0.038081			
59.230000	-0.021750			
59.240000	-0.009502			
59.250000	0.007338			
59.260000	0.019076			
59.270000	0.031834			
59.280000	0.046634			
59.290000	0.057351			
59.300000	0.068578			
59.310000	0.075723			
59.320000	0.081336			
59.330000	0.088991			
59.340000	0.092564			
59.350000	0.096646			
59.360000	0.095115			
59.370000	0.098177			
59.380000	0.093584			
59.390000	0.088481			
59.400000	0.085929			
59.410000	0.076743			
59.420000	0.065006			
59.430000	0.058882			
59.440000	0.046634			
59.450000	0.033876			
59.460000	0.019076			
59.470000	0.007338			
59.480000	-0.005420			
59.490000	-0.019199			
59.500000	-0.035019			
59.510000	-0.050329			
59.520000	-0.064618			
59.530000	-0.075845			
59.540000	-0.088603			
59.550000	-0.099320			
59.560000	-0.111058			
59.570000	-0.121775			
59.580000	-0.128409			
59.590000	-0.133002			
59.600000	-0.138616			
59.610000	-0.141678			
59.620000	-0.145250			
59.630000	-0.144229			
59.640000	-0.144229			
59.650000	-0.139126			
59.660000	-0.136574			
59.670000	-0.129430			
59.680000	-0.120244			
59.690000	-0.111058			
59.700000	-0.101872			
59.710000	-0.087583			
59.720000	-0.075845			
59.730000	-0.062066			
59.740000	-0.048287			
59.750000	-0.033488			
59.760000	-0.020219			
59.770000	-0.005420			
59.780000	0.009380			
59.790000	0.023159			
59.800000	0.036938			
59.810000	0.049186			
59.820000	0.058882			
59.830000	0.071130			
59.840000	0.081847			
59.850000	0.088481			
59.860000	0.095115			
59.870000	0.096646			
59.880000	0.103791			
59.890000	0.104301			
59.900000	0.106342			
59.910000	0.103280			
59.920000	0.097157			
59.930000	0.091033			
59.940000	0.086950			
59.950000	0.079295			
59.960000	0.066537			
59.970000	0.056330			
59.980000	0.047144			
59.990000	0.035407			

